" File: Users\mwalki\Desktop\Lab 5\Spectrometer\
" SCOPE->  Wave:735.15nm  Pix:1050  Val:160.037  Time:1ms  Avg:1  Sm:1  Sg:0  Tc:off  Z  SNAP  Xt:3  Ch:1  Xtrig
 340.00  7.2626E+001
 340.50  1.1572E+002
 341.00  1.2538E+002
 341.50  1.2132E+002
 342.00  7.6643E+001
 342.50  1.1095E+002
 343.00  1.1249E+002
 343.50  1.3074E+002
 344.00  1.2698E+002
 344.50  9.7332E+001
 345.00  9.8336E+001
 345.50  9.3942E+001
 346.00  1.2715E+002
 346.50  1.0278E+002
 347.00  1.0927E+002
 347.50  1.1619E+002
 348.00  1.1896E+002
 348.50  1.2549E+002
 349.00  1.3265E+002
 349.50  1.5127E+002
 350.00  1.7421E+002
 350.50  1.8299E+002
 351.00  1.6625E+002
 351.50  1.4114E+002
 352.00  1.1857E+002
 352.50  1.0958E+002
 353.00  1.2786E+002
 353.50  1.4620E+002
 354.00  1.6474E+002
 354.50  1.5177E+002
 355.00  1.1304E+002
 355.50  8.2745E+001
 356.00  7.0659E+001
 356.50  8.5125E+001
 357.00  1.0386E+002
 357.50  1.1391E+002
 358.00  1.1660E+002
 358.50  1.0726E+002
 359.00  1.0730E+002
 359.50  1.1114E+002
 360.00  1.2631E+002
 360.50  1.4839E+002
 361.00  1.5502E+002
 361.50  1.4418E+002
 362.00  1.3200E+002
 362.50  1.1722E+002
 363.00  1.1450E+002
 363.50  1.1009E+002
 364.00  1.0268E+002
 364.50  1.1990E+002
 365.00  1.3075E+002
 365.50  1.4742E+002
 366.00  1.5308E+002
 366.50  1.3302E+002
 367.00  1.2019E+002
 367.50  1.1888E+002
 368.00  1.2580E+002
 368.50  1.4160E+002
 369.00  1.3908E+002
 369.50  1.2599E+002
 370.00  1.1386E+002
 370.50  9.9604E+001
 371.00  9.0427E+001
 371.50  8.0644E+001
 372.00  8.2557E+001
 372.50  1.0317E+002
 373.00  1.2169E+002
 373.50  1.3739E+002
 374.00  1.3251E+002
 374.50  1.2883E+002
 375.00  1.2542E+002
 375.50  1.2037E+002
 376.00  1.2503E+002
 376.50  1.2150E+002
 377.00  1.0279E+002
 377.50  8.2255E+001
 378.00  8.1655E+001
 378.50  9.2374E+001
 379.00  1.1862E+002
 379.50  1.2125E+002
 380.00  1.1132E+002
 380.50  1.1156E+002
 381.00  1.2037E+002
 381.50  1.2080E+002
 382.00  1.0806E+002
 382.50  8.9275E+001
 383.00  7.3323E+001
 383.50  8.0076E+001
 384.00  8.2074E+001
 384.50  9.3719E+001
 385.00  1.0478E+002
 385.50  1.0721E+002
 386.00  1.1089E+002
 386.50  1.0864E+002
 387.00  1.0379E+002
 387.50  1.1093E+002
 388.00  1.0492E+002
 388.50  8.9466E+001
 389.00  8.9124E+001
 389.50  9.8472E+001
 390.00  1.2869E+002
 390.50  1.5734E+002
 391.00  1.5720E+002
 391.50  1.3127E+002
 392.00  9.8243E+001
 392.50  7.6913E+001
 393.00  7.4910E+001
 393.50  9.0164E+001
 394.00  9.6159E+001
 394.50  1.0329E+002
 395.00  1.0833E+002
 395.50  1.1062E+002
 396.00  1.2797E+002
 396.50  1.3688E+002
 397.00  1.4477E+002
 397.50  1.5908E+002
 398.00  1.6166E+002
 398.50  1.6480E+002
 399.00  1.5768E+002
 399.50  1.3796E+002
 400.00  1.3042E+002
 400.50  1.3274E+002
 401.00  1.5126E+002
 401.50  1.6268E+002
 402.00  1.5022E+002
 402.50  1.3050E+002
 403.00  1.0864E+002
 403.50  9.7197E+001
 404.00  8.8277E+001
 404.50  7.6485E+001
 405.00  7.9987E+001
 405.50  8.3768E+001
 406.00  9.1304E+001
 406.50  9.1101E+001
 407.00  8.7637E+001
 407.50  9.5005E+001
 408.00  1.0292E+002
 408.50  1.1370E+002
 409.00  1.2542E+002
 409.50  1.1802E+002
 410.00  1.2055E+002
 410.50  1.2986E+002
 411.00  1.4529E+002
 411.50  1.5975E+002
 412.00  1.5809E+002
 412.50  1.5684E+002
 413.00  1.5962E+002
 413.50  1.5838E+002
 414.00  1.4344E+002
 414.50  1.2255E+002
 415.00  1.1231E+002
 415.50  1.0075E+002
 416.00  1.0878E+002
 416.50  1.1518E+002
 417.00  1.2984E+002
 417.50  1.3790E+002
 418.00  1.1785E+002
 418.50  9.4533E+001
 419.00  7.2096E+001
 419.50  7.1797E+001
 420.00  9.9363E+001
 420.50  1.2701E+002
 421.00  1.4457E+002
 421.50  1.4130E+002
 422.00  1.2737E+002
 422.50  1.0367E+002
 423.00  7.9772E+001
 423.50  7.1443E+001
 424.00  7.3432E+001
 424.50  9.3098E+001
 425.00  9.3105E+001
 425.50  8.3905E+001
 426.00  7.1866E+001
 426.50  6.9929E+001
 427.00  8.9043E+001
 427.50  1.0872E+002
 428.00  1.1872E+002
 428.50  1.2763E+002
 429.00  1.1819E+002
 429.50  1.2038E+002
 430.00  1.2521E+002
 430.50  1.1894E+002
 431.00  1.2800E+002
 431.50  1.2789E+002
 432.00  1.4699E+002
 432.50  1.3869E+002
 433.00  1.1787E+002
 433.50  9.9232E+001
 434.00  8.6853E+001
 434.50  9.9641E+001
 435.00  1.0945E+002
 435.50  1.0946E+002
 436.00  9.9698E+001
 436.50  1.0101E+002
 437.00  9.9005E+001
 437.50  9.3289E+001
 438.00  8.7578E+001
 438.50  8.2059E+001
 439.00  9.2165E+001
 439.50  1.0601E+002
 440.00  1.1282E+002
 440.50  1.1870E+002
 441.00  1.0814E+002
 441.50  1.0596E+002
 442.00  1.0840E+002
 442.50  1.1438E+002
 443.00  1.1647E+002
 443.50  1.1131E+002
 444.00  1.0885E+002
 444.50  1.1007E+002
 445.00  1.2243E+002
 445.50  1.3099E+002
 446.00  1.2817E+002
 446.50  1.2312E+002
 447.00  1.1549E+002
 447.50  1.1517E+002
 448.00  1.1796E+002
 448.50  1.1896E+002
 449.00  1.1526E+002
 449.50  1.0584E+002
 450.00  1.0598E+002
 450.50  1.0835E+002
 451.00  1.1564E+002
 451.50  1.1168E+002
 452.00  9.8402E+001
 452.50  8.2321E+001
 453.00  6.0135E+001
 453.50  5.1579E+001
 454.00  6.0871E+001
 454.50  7.1402E+001
 455.00  9.3289E+001
 455.50  1.0311E+002
 456.00  9.0928E+001
 456.50  7.7653E+001
 457.00  7.1399E+001
 457.50  6.6154E+001
 458.00  7.4204E+001
 458.50  7.3066E+001
 459.00  6.4763E+001
 459.50  7.5941E+001
 460.00  9.9989E+001
 460.50  1.2704E+002
 461.00  1.4322E+002
 461.50  1.4137E+002
 462.00  1.2372E+002
 462.50  9.9475E+001
 463.00  7.9223E+001
 463.50  6.7947E+001
 464.00  7.1999E+001
 464.50  8.3316E+001
 465.00  9.0739E+001
 465.50  8.0500E+001
 466.00  6.8882E+001
 466.50  5.4405E+001
 467.00  6.6078E+001
 467.50  8.7908E+001
 468.00  1.0453E+002
 468.50  1.0440E+002
 469.00  8.6145E+001
 469.50  8.6944E+001
 470.00  9.3079E+001
 470.50  1.1041E+002
 471.00  1.2573E+002
 471.50  1.3500E+002
 472.00  1.3126E+002
 472.50  1.3632E+002
 473.00  1.4557E+002
 473.50  1.5179E+002
 474.00  1.6169E+002
 474.50  1.5729E+002
 475.00  1.4365E+002
 475.50  1.3585E+002
 476.00  1.3375E+002
 476.50  1.3860E+002
 477.00  1.4918E+002
 477.50  1.5122E+002
 478.00  1.5834E+002
 478.50  1.5787E+002
 479.00  1.5432E+002
 479.50  1.6406E+002
 480.00  1.7355E+002
 480.50  1.7633E+002
 481.00  1.8314E+002
 481.50  1.8148E+002
 482.00  1.8856E+002
 482.50  2.0771E+002
 483.00  2.1205E+002
 483.50  2.1531E+002
 484.00  2.1325E+002
 484.50  2.1124E+002
 485.00  2.2138E+002
 485.50  2.2833E+002
 486.00  2.3544E+002
 486.50  2.5402E+002
 487.00  2.9294E+002
 487.50  3.2615E+002
 488.00  3.4492E+002
 488.50  3.5518E+002
 489.00  3.6536E+002
 489.50  3.9013E+002
 490.00  4.3024E+002
 490.50  4.6553E+002
 491.00  4.8220E+002
 491.50  4.9736E+002
 492.00  5.1696E+002
 492.50  5.2478E+002
 493.00  5.5888E+002
 493.50  5.9006E+002
 494.00  6.2561E+002
 494.50  6.7951E+002
 495.00  7.2536E+002
 495.50  7.8417E+002
 496.00  8.4221E+002
 496.50  8.9747E+002
 497.00  9.7394E+002
 497.50  1.0467E+003
 498.00  1.1215E+003
 498.50  1.2067E+003
 499.00  1.2782E+003
 499.50  1.3588E+003
 500.00  1.4402E+003
 500.50  1.5288E+003
 501.00  1.6381E+003
 501.50  1.7618E+003
 502.00  1.8848E+003
 502.50  2.0038E+003
 503.00  2.1198E+003
 503.50  2.2549E+003
 504.00  2.4237E+003
 504.50  2.6117E+003
 505.00  2.8143E+003
 505.50  3.0230E+003
 506.00  3.2282E+003
 506.50  3.4247E+003
 507.00  3.6141E+003
 507.50  3.8103E+003
 508.00  4.0390E+003
 508.50  4.3032E+003
 509.00  4.6092E+003
 509.50  4.9275E+003
 510.00  5.2463E+003
 510.50  5.5778E+003
 511.00  5.9128E+003
 511.50  6.2558E+003
 512.00  6.6236E+003
 512.50  7.0065E+003
 513.00  7.4040E+003
 513.50  7.8027E+003
 514.00  8.1813E+003
 514.50  8.5496E+003
 515.00  8.9286E+003
 515.50  9.3271E+003
 516.00  9.7667E+003
 516.50  1.0212E+004
 517.00  1.0643E+004
 517.50  1.1082E+004
 518.00  1.1470E+004
 518.50  1.1828E+004
 519.00  1.2207E+004
 519.50  1.2551E+004
 520.00  1.2909E+004
 520.50  1.3252E+004
 521.00  1.3535E+004
 521.50  1.3776E+004
 522.00  1.4019E+004
 522.50  1.4243E+004
 523.00  1.4401E+004
 523.50  1.4516E+004
 524.00  1.4564E+004
 524.50  1.4588E+004
 525.00  1.4607E+004
 525.50  1.4630E+004
 526.00  1.4604E+004
 526.50  1.4557E+004
 527.00  1.4493E+004
 527.50  1.4360E+004
 528.00  1.4204E+004
 528.50  1.4000E+004
 529.00  1.3778E+004
 529.50  1.3553E+004
 530.00  1.3328E+004
 530.50  1.3094E+004
 531.00  1.2861E+004
 531.50  1.2611E+004
 532.00  1.2325E+004
 532.50  1.2009E+004
 533.00  1.1684E+004
 533.50  1.1393E+004
 534.00  1.1123E+004
 534.50  1.0868E+004
 535.00  1.0595E+004
 535.50  1.0336E+004
 536.00  1.0089E+004
 536.50  9.8360E+003
 537.00  9.5717E+003
 537.50  9.2872E+003
 538.00  9.0354E+003
 538.50  8.8079E+003
 539.00  8.5927E+003
 539.50  8.3694E+003
 540.00  8.1223E+003
 540.50  7.8814E+003
 541.00  7.6707E+003
 541.50  7.4756E+003
 542.00  7.2836E+003
 542.50  7.1109E+003
 543.00  6.9294E+003
 543.50  6.7426E+003
 544.00  6.5518E+003
 544.50  6.3498E+003
 545.00  6.1538E+003
 545.50  5.9954E+003
 546.00  5.8717E+003
 546.50  5.7585E+003
 547.00  5.6514E+003
 547.50  5.5061E+003
 548.00  5.3529E+003
 548.50  5.1983E+003
 549.00  5.0355E+003
 549.50  4.8809E+003
 550.00  4.7332E+003
 550.50  4.5949E+003
 551.00  4.4673E+003
 551.50  4.3462E+003
 552.00  4.2257E+003
 552.50  4.1092E+003
 553.00  3.9906E+003
 553.50  3.8718E+003
 554.00  3.7372E+003
 554.50  3.6036E+003
 555.00  3.4980E+003
 555.50  3.3946E+003
 556.00  3.3080E+003
 556.50  3.2231E+003
 557.00  3.1257E+003
 557.50  3.0341E+003
 558.00  2.9306E+003
 558.50  2.8321E+003
 559.00  2.7346E+003
 559.50  2.6385E+003
 560.00  2.5587E+003
 560.50  2.4821E+003
 561.00  2.4104E+003
 561.50  2.3398E+003
 562.00  2.2691E+003
 562.50  2.1913E+003
 563.00  2.1257E+003
 563.50  2.0810E+003
 564.00  2.0240E+003
 564.50  1.9650E+003
 565.00  1.8915E+003
 565.50  1.8113E+003
 566.00  1.7474E+003
 566.50  1.7065E+003
 567.00  1.6735E+003
 567.50  1.6275E+003
 568.00  1.5756E+003
 568.50  1.5149E+003
 569.00  1.4676E+003
 569.50  1.4332E+003
 570.00  1.4106E+003
 570.50  1.3639E+003
 571.00  1.2935E+003
 571.50  1.2306E+003
 572.00  1.1855E+003
 572.50  1.1580E+003
 573.00  1.1412E+003
 573.50  1.1140E+003
 574.00  1.0717E+003
 574.50  1.0347E+003
 575.00  9.9093E+002
 575.50  9.5228E+002
 576.00  9.1444E+002
 576.50  8.8843E+002
 577.00  8.9102E+002
 577.50  8.9476E+002
 578.00  8.9170E+002
 578.50  8.7782E+002
 579.00  8.4092E+002
 579.50  7.9027E+002
 580.00  7.3526E+002
 580.50  6.8426E+002
 581.00  6.4455E+002
 581.50  6.2583E+002
 582.00  6.1862E+002
 582.50  6.1696E+002
 583.00  6.0184E+002
 583.50  5.7948E+002
 584.00  5.6552E+002
 584.50  5.5620E+002
 585.00  5.5209E+002
 585.50  5.3501E+002
 586.00  5.0486E+002
 586.50  4.6621E+002
 587.00  4.3109E+002
 587.50  4.1822E+002
 588.00  4.2135E+002
 588.50  4.1462E+002
 589.00  4.1445E+002
 589.50  4.0228E+002
 590.00  3.8475E+002
 590.50  3.8646E+002
 591.00  3.7986E+002
 591.50  3.8623E+002
 592.00  4.0144E+002
 592.50  3.8634E+002
 593.00  3.6329E+002
 593.50  3.2896E+002
 594.00  2.7539E+002
 594.50  2.5864E+002
 595.00  2.5800E+002
 595.50  2.6100E+002
 596.00  2.7199E+002
 596.50  2.7054E+002
 597.00  2.7762E+002
 597.50  2.8662E+002
 598.00  2.9693E+002
 598.50  3.1080E+002
 599.00  3.0725E+002
 599.50  3.0492E+002
 600.00  2.9075E+002
 600.50  2.6765E+002
 601.00  2.5459E+002
 601.50  2.4730E+002
 602.00  2.4252E+002
 602.50  2.3237E+002
 603.00  2.1846E+002
 603.50  2.0764E+002
 604.00  2.0888E+002
 604.50  2.1565E+002
 605.00  2.1567E+002
 605.50  2.0577E+002
 606.00  1.9670E+002
 606.50  1.9736E+002
 607.00  2.0008E+002
 607.50  1.9629E+002
 608.00  1.8773E+002
 608.50  1.6903E+002
 609.00  1.6185E+002
 609.50  1.7166E+002
 610.00  1.8476E+002
 610.50  2.1177E+002
 611.00  2.2183E+002
 611.50  2.1481E+002
 612.00  1.9540E+002
 612.50  1.5297E+002
 613.00  1.2572E+002
 613.50  1.1747E+002
 614.00  1.2120E+002
 614.50  1.3666E+002
 615.00  1.4083E+002
 615.50  1.3835E+002
 616.00  1.4650E+002
 616.50  1.5797E+002
 617.00  1.6722E+002
 617.50  1.7238E+002
 618.00  1.6078E+002
 618.50  1.4346E+002
 619.00  1.2748E+002
 619.50  1.0868E+002
 620.00  9.8782E+001
 620.50  9.2952E+001
 621.00  9.5537E+001
 621.50  1.0511E+002
 622.00  1.1521E+002
 622.50  1.2943E+002
 623.00  1.3794E+002
 623.50  1.4128E+002
 624.00  1.4809E+002
 624.50  1.5677E+002
 625.00  1.5335E+002
 625.50  1.4602E+002
 626.00  1.4035E+002
 626.50  1.3090E+002
 627.00  1.2870E+002
 627.50  1.2667E+002
 628.00  1.2070E+002
 628.50  1.2260E+002
 629.00  1.2697E+002
 629.50  1.2006E+002
 630.00  1.1022E+002
 630.50  9.9982E+001
 631.00  9.7255E+001
 631.50  1.1706E+002
 632.00  1.3362E+002
 632.50  1.4023E+002
 633.00  1.4402E+002
 633.50  1.4424E+002
 634.00  1.4769E+002
 634.50  1.4052E+002
 635.00  1.2033E+002
 635.50  9.8303E+001
 636.00  8.8991E+001
 636.50  1.0015E+002
 637.00  1.2603E+002
 637.50  1.4384E+002
 638.00  1.4939E+002
 638.50  1.4187E+002
 639.00  1.3055E+002
 639.50  1.3912E+002
 640.00  1.5223E+002
 640.50  1.7040E+002
 641.00  1.7881E+002
 641.50  1.7255E+002
 642.00  1.5616E+002
 642.50  1.3266E+002
 643.00  1.2189E+002
 643.50  1.0440E+002
 644.00  9.8563E+001
 644.50  1.0162E+002
 645.00  9.9257E+001
 645.50  1.1421E+002
 646.00  1.2666E+002
 646.50  1.3424E+002
 647.00  1.3882E+002
 647.50  1.2967E+002
 648.00  1.2064E+002
 648.50  1.2091E+002
 649.00  1.3049E+002
 649.50  1.3133E+002
 650.00  1.2814E+002
 650.50  1.2214E+002
 651.00  1.0922E+002
 651.50  1.0274E+002
 652.00  1.0290E+002
 652.50  9.7745E+001
 653.00  8.8984E+001
 653.50  9.6400E+001
 654.00  1.0885E+002
 654.50  1.1230E+002
 655.00  1.0681E+002
 655.50  8.4085E+001
 656.00  5.8358E+001
 656.50  5.2558E+001
 657.00  6.2006E+001
 657.50  8.1363E+001
 658.00  8.9155E+001
 658.50  8.0899E+001
 659.00  7.5044E+001
 659.50  7.7703E+001
 660.00  8.4161E+001
 660.50  9.0512E+001
 661.00  9.8332E+001
 661.50  1.0501E+002
 662.00  1.1022E+002
 662.50  1.2304E+002
 663.00  1.3408E+002
 663.50  1.2968E+002
 664.00  1.2403E+002
 664.50  1.2149E+002
 665.00  1.1776E+002
 665.50  1.0822E+002
 666.00  9.7778E+001
 666.50  8.7938E+001
 667.00  8.2918E+001
 667.50  9.4012E+001
 668.00  9.7241E+001
 668.50  9.4290E+001
 669.00  9.0365E+001
 669.50  8.4513E+001
 670.00  9.5794E+001
 670.50  1.0937E+002
 671.00  1.2213E+002
 671.50  1.3847E+002
 672.00  1.5034E+002
 672.50  1.5990E+002
 673.00  1.6328E+002
 673.50  1.4979E+002
 674.00  1.3622E+002
 674.50  1.3472E+002
 675.00  1.3658E+002
 675.50  1.3893E+002
 676.00  1.4124E+002
 676.50  1.2800E+002
 677.00  1.0984E+002
 677.50  9.9349E+001
 678.00  7.7426E+001
 678.50  6.2163E+001
 679.00  5.8068E+001
 679.50  5.6479E+001
 680.00  7.2132E+001
 680.50  9.0584E+001
 681.00  8.6549E+001
 681.50  8.3958E+001
 682.00  8.7152E+001
 682.50  8.6005E+001
 683.00  1.0253E+002
 683.50  1.2356E+002
 684.00  1.2387E+002
 684.50  1.1054E+002
 685.00  1.0357E+002
 685.50  9.9857E+001
 686.00  1.0668E+002
 686.50  1.2337E+002
 687.00  1.3642E+002
 687.50  1.4222E+002
 688.00  1.4132E+002
 688.50  1.3511E+002
 689.00  1.2081E+002
 689.50  1.0865E+002
 690.00  1.0226E+002
 690.50  1.0538E+002
 691.00  1.1359E+002
 691.50  1.1872E+002
 692.00  1.2083E+002
 692.50  1.2750E+002
 693.00  1.2744E+002
 693.50  1.2118E+002
 694.00  1.1360E+002
 694.50  9.1651E+001
 695.00  7.7566E+001
 695.50  7.1396E+001
 696.00  7.7593E+001
 696.50  9.5220E+001
 697.00  1.0574E+002
 697.50  1.1854E+002
 698.00  1.1197E+002
 698.50  9.5632E+001
 699.00  8.7745E+001
 699.50  8.4609E+001
 700.00  9.2832E+001
 700.50  1.0201E+002
 701.00  1.0473E+002
 701.50  1.0212E+002
 702.00  9.0477E+001
 702.50  9.3754E+001
 703.00  1.0725E+002
 703.50  1.2357E+002
 704.00  1.3424E+002
 704.50  1.3090E+002
 705.00  1.2128E+002
 705.50  1.1531E+002
 706.00  1.0743E+002
 706.50  1.0767E+002
 707.00  1.1711E+002
 707.50  1.1709E+002
 708.00  1.1518E+002
 708.50  1.1242E+002
 709.00  1.0322E+002
 709.50  9.3984E+001
 710.00  9.1952E+001
 710.50  9.4341E+001
 711.00  1.0996E+002
 711.50  1.3468E+002
 712.00  1.4987E+002
 712.50  1.6241E+002
 713.00  1.5837E+002
 713.50  1.4730E+002
 714.00  1.4860E+002
 714.50  1.4578E+002
 715.00  1.3803E+002
 715.50  1.2358E+002
 716.00  1.0315E+002
 716.50  8.9149E+001
 717.00  9.4574E+001
 717.50  1.0457E+002
 718.00  1.1049E+002
 718.50  1.1985E+002
 719.00  1.1585E+002
 719.50  9.9438E+001
 720.00  9.8846E+001
 720.50  9.8037E+001
 721.00  1.0004E+002
 721.50  1.0748E+002
 722.00  1.0447E+002
 722.50  9.3199E+001
 723.00  8.6541E+001
 723.50  8.8935E+001
 724.00  1.0374E+002
 724.50  1.3067E+002
 725.00  1.5836E+002
 725.50  1.7173E+002
 726.00  1.7183E+002
 726.50  1.6863E+002
 727.00  1.6342E+002
 727.50  1.4815E+002
 728.00  1.3357E+002
 728.50  1.2742E+002
 729.00  1.1786E+002
 729.50  1.1457E+002
 730.00  1.2125E+002
 730.50  1.1977E+002
 731.00  1.1041E+002
 731.50  1.2371E+002
 732.00  1.3624E+002
 732.50  1.4376E+002
 733.00  1.5734E+002
 733.50  1.6756E+002
 734.00  1.7124E+002
 734.50  1.6989E+002
 735.00  1.6259E+002
 735.50  1.4666E+002
 736.00  1.2755E+002
 736.50  1.1584E+002
 737.00  1.0783E+002
 737.50  1.0003E+002
 738.00  9.6417E+001
 738.50  1.0483E+002
 739.00  1.1475E+002
 739.50  1.2910E+002
 740.00  1.4710E+002
 740.50  1.5121E+002
 741.00  1.5429E+002
 741.50  1.5162E+002
 742.00  1.3911E+002
 742.50  1.2612E+002
 743.00  1.1546E+002
 743.50  1.1291E+002
 744.00  1.1917E+002
 744.50  1.2880E+002
 745.00  1.3364E+002
 745.50  1.2635E+002
 746.00  1.1433E+002
 746.50  9.7052E+001
 747.00  7.8554E+001
 747.50  7.2903E+001
 748.00  6.8774E+001
 748.50  6.6944E+001
 749.00  6.4689E+001
 749.50  6.4868E+001
 750.00  7.2020E+001
 750.50  9.0149E+001
 751.00  1.1455E+002
 751.50  1.3313E+002
 752.00  1.3884E+002
 752.50  1.2373E+002
 753.00  1.0131E+002
 753.50  8.3340E+001
 754.00  6.0868E+001
 754.50  5.0408E+001
 755.00  6.0035E+001
 755.50  6.9489E+001
 756.00  8.9096E+001
 756.50  1.1761E+002
 757.00  1.3546E+002
 757.50  1.4891E+002
 758.00  1.4953E+002
 758.50  1.3304E+002
 759.00  1.0756E+002
 759.50  8.7268E+001
 760.00  7.8312E+001
 760.50  8.3093E+001
 761.00  1.0199E+002
 761.50  1.1879E+002
 762.00  1.2956E+002
 762.50  1.3308E+002
 763.00  1.2963E+002
 763.50  1.2159E+002
 764.00  1.1134E+002
 764.50  1.0375E+002
 765.00  1.0385E+002
 765.50  1.0947E+002
 766.00  1.0943E+002
 766.50  1.0541E+002
 767.00  9.9906E+001
 767.50  1.0254E+002
 768.00  1.1164E+002
 768.50  1.1698E+002
 769.00  1.0489E+002
 769.50  8.3405E+001
 770.00  6.4764E+001
 770.50  5.6190E+001
 771.00  8.0062E+001
 771.50  1.0245E+002
 772.00  1.1291E+002
 772.50  1.1823E+002
 773.00  1.1211E+002
 773.50  1.0822E+002
 774.00  1.0692E+002
 774.50  1.0592E+002
 775.00  1.0313E+002
 775.50  1.0084E+002
 776.00  1.0168E+002
 776.50  1.0441E+002
 777.00  1.1607E+002
 777.50  1.2639E+002
 778.00  1.3134E+002
 778.50  1.2582E+002
 779.00  1.0570E+002
 779.50  9.2739E+001
 780.00  8.5147E+001
 780.50  9.2388E+001
 781.00  1.1086E+002
 781.50  1.1933E+002
 782.00  1.2896E+002
 782.50  1.3193E+002
 783.00  1.1889E+002
 783.50  1.0115E+002
 784.00  9.0300E+001
 784.50  9.7112E+001
 785.00  1.2411E+002
 785.50  1.5734E+002
 786.00  1.7004E+002
 786.50  1.5771E+002
 787.00  1.3510E+002
 787.50  1.1056E+002
 788.00  1.0481E+002
 788.50  1.0427E+002
 789.00  1.0126E+002
 789.50  1.0228E+002
 790.00  9.4791E+001
 790.50  8.9152E+001
 791.00  8.8096E+001
 791.50  8.5556E+001
 792.00  9.4134E+001
 792.50  1.0100E+002
 793.00  1.1094E+002
 793.50  1.0917E+002
 794.00  9.1872E+001
 794.50  8.1235E+001
 795.00  6.7982E+001
 795.50  6.0586E+001
 796.00  7.0704E+001
 796.50  7.9303E+001
 797.00  9.0802E+001
 797.50  1.0876E+002
 798.00  1.2051E+002
 798.50  1.3362E+002
 799.00  1.3591E+002
 799.50  1.3392E+002
 800.00  1.3828E+002
 800.50  1.2863E+002
 801.00  1.1470E+002
 801.50  1.0350E+002
 802.00  8.3919E+001
 802.50  7.5503E+001
 803.00  8.1593E+001
 803.50  8.7461E+001
 804.00  9.3668E+001
 804.50  9.5662E+001
 805.00  9.0942E+001
 805.50  9.3211E+001
 806.00  9.3276E+001
 806.50  9.1875E+001
 807.00  9.9171E+001
 807.50  1.1213E+002
 808.00  1.2188E+002
 808.50  1.3148E+002
 809.00  1.3464E+002
 809.50  1.2965E+002
 810.00  1.2556E+002
 810.50  1.2223E+002
 811.00  1.2778E+002
 811.50  1.2536E+002
 812.00  1.2656E+002
 812.50  1.3341E+002
 813.00  1.2800E+002
 813.50  1.2345E+002
 814.00  1.2039E+002
 814.50  1.2056E+002
 815.00  1.3575E+002
 815.50  1.4702E+002
 816.00  1.4962E+002
 816.50  1.3972E+002
 817.00  1.2342E+002
 817.50  1.1442E+002
 818.00  1.1528E+002
 818.50  1.2139E+002
 819.00  1.2765E+002
 819.50  1.3778E+002
 820.00  1.4004E+002
 820.50  1.3989E+002
 821.00  1.3623E+002
 821.50  1.1870E+002
 822.00  1.0089E+002
 822.50  8.6893E+001
 823.00  8.1065E+001
 823.50  8.8638E+001
 824.00  1.0847E+002
 824.50  1.3259E+002
 825.00  1.3255E+002
 825.50  1.2098E+002
 826.00  9.8898E+001
 826.50  7.1669E+001
 827.00  5.5815E+001
 827.50  5.0458E+001
 828.00  5.7497E+001
 828.50  6.9360E+001
 829.00  8.8008E+001
 829.50  1.0437E+002
 830.00  1.0968E+002
 830.50  1.1312E+002
 831.00  1.1702E+002
 831.50  1.1835E+002
 832.00  1.2029E+002
 832.50  1.2342E+002
 833.00  1.1511E+002
 833.50  1.0359E+002
 834.00  1.0716E+002
 834.50  1.0916E+002
 835.00  1.1362E+002
 835.50  1.1538E+002
 836.00  1.1189E+002
 836.50  1.0491E+002
 837.00  9.4738E+001
 837.50  8.8513E+001
 838.00  8.2815E+001
 838.50  7.9855E+001
 839.00  8.5720E+001
 839.50  1.0036E+002
 840.00  1.0670E+002
 840.50  1.1290E+002
 841.00  1.1068E+002
 841.50  9.5489E+001
 842.00  8.1374E+001
 842.50  6.0951E+001
 843.00  4.5335E+001
 843.50  4.0327E+001
 844.00  4.9215E+001
 844.50  6.7445E+001
 845.00  8.9123E+001
 845.50  1.0613E+002
 846.00  1.0640E+002
 846.50  1.0154E+002
 847.00  1.0105E+002
 847.50  1.0024E+002
 848.00  1.0635E+002
 848.50  1.1750E+002
 849.00  1.1868E+002
 849.50  1.1593E+002
 850.00  1.1722E+002
 850.50  1.2692E+002
 851.00  1.2933E+002
 851.50  1.2812E+002
 852.00  1.3050E+002
 852.50  1.0681E+002
 853.00  7.8426E+001
 853.50  6.4205E+001
 854.00  4.6280E+001
 854.50  4.5401E+001
 855.00  6.4597E+001
 855.50  8.2883E+001
 856.00  1.0901E+002
 856.50  1.3140E+002
 857.00  1.3012E+002
 857.50  1.1991E+002
 858.00  1.0103E+002
 858.50  7.9086E+001
 859.00  6.9606E+001
 859.50  7.6269E+001
 860.00  9.0379E+001
 860.50  1.0433E+002
 861.00  1.1489E+002
 861.50  1.1659E+002
 862.00  1.0563E+002
 862.50  9.8252E+001
 863.00  9.4730E+001
 863.50  8.6121E+001
 864.00  7.9131E+001
 864.50  6.8450E+001
 865.00  5.9985E+001
 865.50  6.0665E+001
 866.00  7.0640E+001
 866.50  8.6184E+001
 867.00  9.5515E+001
 867.50  1.0553E+002
 868.00  1.2560E+002
 868.50  1.3611E+002
 869.00  1.4546E+002
 869.50  1.5106E+002
 870.00  1.3814E+002
 870.50  1.2107E+002
 871.00  1.0434E+002
 871.50  8.5163E+001
 872.00  7.6625E+001
 872.50  8.1444E+001
 873.00  9.4367E+001
 873.50  1.1348E+002
 874.00  1.2485E+002
 874.50  1.1805E+002
 875.00  1.0935E+002
 875.50  1.0161E+002
 876.00  9.6221E+001
 876.50  1.1249E+002
 877.00  1.2632E+002
 877.50  1.2950E+002
 878.00  1.3394E+002
 878.50  1.2391E+002
 879.00  1.0728E+002
 879.50  9.6124E+001
 880.00  9.6338E+001
 880.50  1.0998E+002
 881.00  1.2897E+002
 881.50  1.4016E+002
 882.00  1.3282E+002
 882.50  1.1857E+002
 883.00  1.0843E+002
 883.50  1.0366E+002
 884.00  1.1112E+002
 884.50  1.2973E+002
 885.00  1.4290E+002
 885.50  1.5394E+002
 886.00  1.6280E+002
 886.50  1.5579E+002
 887.00  1.3779E+002
 887.50  1.2172E+002
 888.00  1.0297E+002
 888.50  9.8014E+001
 889.00  1.0530E+002
 889.50  1.0523E+002
 890.00  9.7686E+001
 890.50  9.3837E+001
 891.00  9.6343E+001
 891.50  1.1510E+002
 892.00  1.4959E+002
 892.50  1.7142E+002
 893.00  1.6101E+002
 893.50  1.2947E+002
 894.00  1.0317E+002
 894.50  9.1378E+001
 895.00  1.0284E+002
 895.50  1.2551E+002
 896.00  1.4160E+002
 896.50  1.4122E+002
 897.00  1.2549E+002
 897.50  1.1231E+002
 898.00  1.0778E+002
 898.50  1.1794E+002
 899.00  1.3405E+002
 899.50  1.4811E+002
 900.00  1.4869E+002
 900.50  1.3712E+002
 901.00  1.3328E+002
 901.50  1.3584E+002
 902.00  1.4198E+002
 902.50  1.4932E+002
 903.00  1.4727E+002
 903.50  1.3680E+002
 904.00  1.2174E+002
 904.50  1.0447E+002
 905.00  9.8458E+001
 905.50  9.9789E+001
 906.00  1.0655E+002
 906.50  1.1931E+002
 907.00  1.2368E+002
 907.50  1.2305E+002
 908.00  1.1906E+002
 908.50  1.2085E+002
 909.00  1.3410E+002
 909.50  1.4593E+002
 910.00  1.6066E+002
 910.50  1.7042E+002
 911.00  1.5832E+002
 911.50  1.3630E+002
 912.00  1.0976E+002
 912.50  8.4202E+001
 913.00  7.7314E+001
 913.50  8.9207E+001
 914.00  1.0962E+002
 914.50  1.3443E+002
 915.00  1.5113E+002
 915.50  1.6041E+002
 916.00  1.6134E+002
 916.50  1.5774E+002
 917.00  1.5626E+002
 917.50  1.3879E+002
 918.00  1.0896E+002
 918.50  8.6191E+001
 919.00  5.6404E+001
 919.50  4.6825E+001
 920.00  6.6561E+001
 920.50  9.0321E+001
 921.00  1.1607E+002
 921.50  1.3581E+002
 922.00  1.3705E+002
 922.50  1.3579E+002
 923.00  1.3684E+002
 923.50  1.3589E+002
 924.00  1.3242E+002
 924.50  1.3090E+002
 925.00  1.3040E+002
 925.50  1.3379E+002
 926.00  1.3815E+002
 926.50  1.4244E+002
 927.00  1.4069E+002
 927.50  1.3065E+002
 928.00  1.1466E+002
 928.50  9.7833E+001
 929.00  8.8964E+001
 929.50  8.8452E+001
 930.00  9.3945E+001
 930.50  9.5388E+001
 931.00  9.5114E+001
 931.50  8.2476E+001
 932.00  6.7525E+001
 932.50  6.7222E+001
 933.00  7.3790E+001
 933.50  7.8899E+001
 934.00  8.7456E+001
 934.50  9.3087E+001
 935.00  9.1684E+001
 935.50  8.6971E+001
 936.00  8.3638E+001
 936.50  8.2499E+001
 937.00  8.3021E+001
 937.50  8.6695E+001
 938.00  9.1900E+001
 938.50  9.6400E+001
 939.00  9.3981E+001
 939.50  8.9592E+001
 940.00  8.9588E+001
 940.50  8.9485E+001
 941.00  9.2130E+001
 941.50  1.0354E+002
 942.00  1.0812E+002
 942.50  1.0315E+002
 943.00  9.7941E+001
 943.50  8.9471E+001
 944.00  8.1373E+001
 944.50  9.0893E+001
 945.00  1.0653E+002
 945.50  1.1801E+002
 946.00  1.3329E+002
 946.50  1.3306E+002
 947.00  1.2781E+002
 947.50  1.3449E+002
 948.00  1.3823E+002
 948.50  1.3532E+002
 949.00  1.3837E+002
 949.50  1.3521E+002
 950.00  1.2423E+002
 950.50  1.1746E+002
 951.00  1.1716E+002
 951.50  1.1255E+002
 952.00  1.0952E+002
 952.50  1.0869E+002
 953.00  1.1351E+002
 953.50  1.2088E+002
 954.00  1.2734E+002
 954.50  1.2181E+002
 955.00  1.1093E+002
 955.50  1.0000E+002
 956.00  8.9446E+001
 956.50  9.6713E+001
 957.00  1.1671E+002
 957.50  1.2584E+002
 958.00  1.2913E+002
 958.50  1.2055E+002
 959.00  1.0430E+002
 959.50  9.2596E+001
 960.00  9.1723E+001
 960.50  1.0769E+002
 961.00  1.2857E+002
 961.50  1.4335E+002
 962.00  1.4923E+002
 962.50  1.4565E+002
 963.00  1.3451E+002
 963.50  1.2762E+002
 964.00  1.2665E+002
 964.50  1.2147E+002
 965.00  1.1283E+002
 965.50  9.9380E+001
 966.00  7.9422E+001
 966.50  7.2514E+001
 967.00  8.2510E+001
 967.50  1.0163E+002
 968.00  1.1911E+002
 968.50  1.2677E+002
 969.00  1.2131E+002
 969.50  1.0576E+002
 970.00  9.0627E+001
 970.50  7.7093E+001
 971.00  6.6218E+001
 971.50  6.4593E+001
 972.00  6.8522E+001
 972.50  7.6697E+001
 973.00  8.5131E+001
 973.50  8.8416E+001
 974.00  8.4350E+001
 974.50  8.5392E+001
 975.00  9.6015E+001
 975.50  1.1088E+002
 976.00  1.2585E+002
 976.50  1.3053E+002
 977.00  1.1842E+002
 977.50  1.0734E+002
 978.00  1.0858E+002
 978.50  1.0716E+002
 979.00  1.0896E+002
 979.50  1.1365E+002
 980.00  1.1604E+002
 980.50  1.1620E+002
 981.00  1.1746E+002
 981.50  1.1716E+002
 982.00  1.0403E+002
 982.50  8.5404E+001
 983.00  7.6853E+001
 983.50  7.8836E+001
 984.00  9.0125E+001
 984.50  9.8621E+001
 985.00  1.0062E+002
 985.50  9.4380E+001
 986.00  7.6002E+001
 986.50  6.1722E+001
 987.00  5.7930E+001
 987.50  5.8404E+001
 988.00  6.8144E+001
 988.50  8.2212E+001
 989.00  9.7279E+001
 989.50  1.0374E+002
 990.00  9.9221E+001
 990.50  9.6069E+001
 991.00  9.5051E+001
 991.50  9.5879E+001
 992.00  1.0109E+002
 992.50  1.1349E+002
 993.00  1.1199E+002
 993.50  1.0345E+002
 994.00  9.8456E+001
 994.50  9.2809E+001
 995.00  8.1752E+001
 995.50  8.0626E+001
 996.00  7.6068E+001
 996.50  6.8680E+001
 997.00  6.7822E+001
 997.50  8.1800E+001
 998.00  9.1442E+001
 998.50  9.8181E+001
 999.00  1.0535E+002
 999.50  1.1328E+002
1000.00  1.2320E+002
1000.50  1.3571E+002
1001.00  1.4600E+002
1001.50  1.3938E+002
1002.00  1.1784E+002
1002.50  1.0124E+002
1003.00  9.2337E+001
1003.50  8.6600E+001
1004.00  8.7668E+001
1004.50  9.0620E+001
1005.00  8.5889E+001
1005.50  7.8371E+001
1006.00  6.8614E+001
1006.50  6.6069E+001
1007.00  7.6696E+001
1007.50  9.9022E+001
1008.00  1.2975E+002
1008.50  1.5996E+002
1009.00  1.6985E+002
1009.50  1.5780E+002
1010.00  1.3953E+002
1010.50  1.2326E+002
1011.00  1.2195E+002
1011.50  1.2493E+002
1012.00  1.2483E+002
1012.50  1.3228E+002
1013.00  1.3886E+002
1013.50  1.4173E+002
1014.00  1.4677E+002
1014.50  1.4234E+002
1015.00  1.3267E+002
1015.50  1.2966E+002
1016.00  1.3038E+002
1016.50  1.3442E+002
1017.00  1.3216E+002
1017.50  1.2376E+002
1018.00  1.1662E+002
1018.50  1.0542E+002
1019.00  9.5989E+001
1019.50  9.7121E+001
1020.00  9.9797E+001
1020.50  1.0300E+002
1021.00  1.1225E+002
1021.50  1.1559E+002
1022.00  1.0898E+002
1022.50  1.0010E+002
1023.00  9.0705E+001
1023.50  7.9191E+001
1024.00  6.9375E+001
1024.50  6.7504E+001
1025.00  7.5667E+001
1025.50  8.3814E+001
1026.00  8.7719E+001
1026.50  9.9814E+001
1027.00  1.0586E+002
1027.50  9.5346E+001
1028.00  9.6190E+001
1028.50  1.0155E+002
1029.00  9.1850E+001
1029.50  9.0625E+001
1030.00  9.8256E+001
1030.50  1.0115E+002
1031.00  9.8097E+001
1031.50  8.7827E+001
1032.00  8.3895E+001
1032.50  8.9943E+001
1033.00  9.7105E+001
1033.50  1.1158E+002
1034.00  1.3337E+002
1034.50  1.4062E+002
1035.00  1.3613E+002
1035.50  1.2980E+002
1036.00  1.1919E+002
1036.50  1.0065E+002
1037.00  8.5110E+001
1037.50  8.5813E+001
1038.00  9.4576E+001
1038.50  1.0379E+002
1039.00  1.1424E+002
1039.50  1.1240E+002
1040.00  1.0107E+002
1040.50  9.2592E+001
1041.00  8.6472E+001
1041.50  9.1521E+001
1042.00  1.0346E+002
1042.50  1.1084E+002
1043.00  1.2023E+002
1043.50  1.2542E+002
1044.00  1.1866E+002
1044.50  1.1025E+002
1045.00  1.0786E+002
1045.50  1.0227E+002
1046.00  1.0078E+002
1046.50  1.0548E+002
1047.00  1.1478E+002
1047.50  1.2748E+002
1048.00  1.4180E+002
1048.50  1.5424E+002
1049.00  1.6574E+002
1049.50  1.6604E+002
1050.00  1.5169E+002
1050.50  1.4446E+002
1051.00  1.3499E+002
1051.50  1.0765E+002
1052.00  8.9214E+001
1052.50  8.4093E+001
1053.00  9.0210E+001
1053.50  1.0946E+002
1054.00  1.3346E+002
1054.50  1.5176E+002
1055.00  1.5822E+002
1055.50  1.4968E+002
1056.00  1.4567E+002
1056.50  1.4654E+002
1057.00  1.4398E+002
1057.50  1.3526E+002
1058.00  1.2918E+002
1058.50  1.2152E+002
1059.00  1.1539E+002
1059.50  1.1777E+002
1060.00  1.2296E+002
1060.50  1.2549E+002
1061.00  1.1380E+002
1061.50  9.6675E+001
1062.00  9.4980E+001
1062.50  9.3298E+001
1063.00  9.1435E+001
1063.50  9.9075E+001
1064.00  9.7386E+001
1064.50  8.0699E+001
1065.00  7.2468E+001
1065.50  7.2692E+001
1066.00  7.0813E+001
1066.50  7.5993E+001
1067.00  9.2394E+001
1067.50  9.6434E+001
1068.00  8.7552E+001
1068.50  8.6806E+001
1069.00  8.5802E+001
1069.50  8.1660E+001
1070.00  9.0067E+001
1070.50  9.7727E+001
1071.00  9.2129E+001
1071.50  8.5381E+001
1072.00  7.9871E+001
1072.50  7.8806E+001
1073.00  8.6653E+001
1073.50  9.7394E+001
1074.00  9.4280E+001
1074.50  9.3852E+001
1075.00  1.0076E+002
1075.50  1.0884E+002
1076.00  1.1468E+002
1076.50  1.1864E+002
1077.00  1.1311E+002
1077.50  1.0123E+002
1078.00  9.7285E+001
1078.50  1.0786E+002
1079.00  1.1927E+002
1079.50  1.2464E+002
1080.00  1.2458E+002
1080.50  1.1776E+002
1081.00  1.0794E+002
1081.50  1.1010E+002
1082.00  1.1570E+002
1082.50  1.2281E+002
1083.00  1.2518E+002
1083.50  1.1893E+002
1084.00  1.1054E+002
1084.50  1.0619E+002
1085.00  9.7747E+001
1085.50  8.9415E+001
1086.00  8.8639E+001
1086.50  9.2010E+001
1087.00  9.2483E+001
1087.50  9.8491E+001
1088.00  1.0649E+002
1088.50  1.0189E+002
1089.00  9.5498E+001
1089.50  8.8310E+001
1090.00  7.8837E+001
1090.50  8.0793E+001
1091.00  8.7817E+001
1091.50  9.1422E+001
1092.00  1.0185E+002
1092.50  1.0874E+002
1093.00  1.0620E+002
1093.50  9.5674E+001
1094.00  8.2028E+001
1094.50  6.7098E+001
1095.00  6.0102E+001
1095.50  7.3650E+001
1096.00  1.0246E+002
1096.50  1.2401E+002
1097.00  1.4067E+002
1097.50  1.5000E+002
1098.00  1.3810E+002
1098.50  1.2724E+002
1099.00  1.3065E+002
1099.50  1.3066E+002
1100.00  1.3240E+002
1100.50  1.4576E+002
1101.00  1.5559E+002
1101.50  1.5494E+002
1102.00  1.4822E+002
1102.50  1.4183E+002
1103.00  1.3808E+002
1103.50  1.3164E+002
1104.00  1.2111E+002
1104.50  1.1241E+002
1105.00  1.0056E+002
1105.50  9.5335E+001
1106.00  1.0843E+002
1106.50  1.3129E+002
1107.00  1.4860E+002
1107.50  1.5397E+002
1108.00  1.5408E+002
1108.50  1.4911E+002
1109.00  1.3587E+002
1109.50  1.2279E+002
1110.00  1.0868E+002
1110.50  9.1443E+001
1111.00  8.0704E+001
1111.50  8.0721E+001
1112.00  9.0330E+001
1112.50  9.4878E+001
1113.00  9.9850E+001
1113.50  1.0597E+002
1114.00  9.3046E+001
1114.50  7.5270E+001
1115.00  6.8140E+001
1115.50  6.4286E+001
1116.00  6.7002E+001
1116.50  7.7533E+001
1117.00  8.5680E+001
1117.50  8.9738E+001
1118.00  9.1441E+001
1118.50  9.6894E+001
1119.00  1.0954E+002
1119.50  1.1476E+002
1120.00  1.1838E+002
1120.50  1.2725E+002
1121.00  1.3585E+002
1121.50  1.4293E+002
1122.00  1.5021E+002
1122.50  1.5094E+002
1123.00  1.4890E+002
1123.50  1.4729E+002
1124.00  1.4796E+002
1124.50  1.5127E+002
1125.00  1.4745E+002
1125.50  1.3758E+002
1126.00  1.2672E+002
1126.50  1.1203E+002
1127.00  1.0404E+002
1127.50  1.0350E+002
1128.00  1.0008E+002
1128.50  1.0115E+002
1129.00  1.0090E+002
1129.50  9.2714E+001
1130.00  8.9010E+001
1130.50  9.2632E+001
1131.00  1.0022E+002
1131.50  1.1154E+002
1132.00  1.2483E+002
1132.50  1.3380E+002
1133.00  1.2698E+002
1133.50  1.0842E+002
1134.00  9.1983E+001
1134.50  7.9829E+001
1135.00  7.2645E+001
1135.50  7.2231E+001
1136.00  7.9023E+001
1136.50  8.9927E+001
1137.00  1.0128E+002
1137.50  1.0963E+002
1138.00  1.1747E+002
1138.50  1.2257E+002
1139.00  1.2079E+002
1139.50  1.1660E+002
1140.00  1.1028E+002
1140.50  1.0388E+002
1141.00  1.0425E+002
1141.50  1.0822E+002
1142.00  1.2035E+002
1142.50  1.3436E+002
1143.00  1.4222E+002
1143.50  1.4907E+002
1144.00  1.5017E+002
1144.50  1.4856E+002
1145.00  1.4924E+002
1145.50  1.4543E+002
1146.00  1.3490E+002
1146.50  1.1806E+002
1147.00  9.7425E+001
1147.50  8.2410E+001
1148.00  7.4353E+001
1148.50  7.7522E+001
1149.00  9.0793E+001
1149.50  1.0211E+002
1150.00  1.0818E+002
1150.50  1.2008E+002
1151.00  1.2014E+002
1151.50  1.1387E+002
1152.00  1.0926E+002
1152.50  9.9047E+001
1153.00  8.4690E+001
1153.50  7.4157E+001
1154.00  6.4530E+001
1154.50  5.6021E+001
1155.00  5.4916E+001
1155.50  5.8397E+001
1156.00  6.2491E+001
1156.50  7.3928E+001
1157.00  9.4508E+001
1157.50  1.0577E+002
1158.00  1.0423E+002
1158.50  1.0206E+002
1159.00  9.6955E+001
1159.50  9.0564E+001
1160.00  8.6181E+001
1160.50  8.3449E+001
1161.00  7.4879E+001
1161.50  6.1473E+001
1162.00  5.1734E+001
1162.50  4.8505E+001
1163.00  4.8936E+001
1163.50  5.6260E+001
1164.00  6.7965E+001
1164.50  8.1448E+001
1165.00  1.0035E+002
1165.50  1.1596E+002
1166.00  1.2034E+002
1166.50  1.1672E+002
1167.00  1.0623E+002
1167.50  9.2646E+001
1168.00  8.7458E+001
1168.50  8.0337E+001
1169.00  7.7510E+001
1169.50  8.5690E+001
1170.00  9.0332E+001
1170.50  8.6381E+001
1171.00  8.5816E+001
1171.50  8.4096E+001
1172.00  8.0550E+001
1172.50  8.2631E+001
1173.00  8.8400E+001
1173.50  9.4719E+001
1174.00  9.8097E+001
1174.50  9.0957E+001
1175.00  8.3280E+001
1175.50  8.3925E+001
1176.00  9.0065E+001
1176.50  9.9495E+001
1177.00  1.1363E+002
1177.50  1.5103E+002
1178.00  1.3103E+002
1178.50  1.0724E+002
