" File: Users\mwalki\Desktop\Lab 5\Spectrometer\
" SCOPE->  Wave:735.15nm  Pix:1050  Val: 94.205  Time:30ms  Avg:1  Sm:1  Sg:0  Tc:off  SNAP  Xt:3  Ch:1  Xtrig
 340.00  5.8536E+001
 340.50  6.0850E+001
 341.00  8.9518E+001
 341.50  1.5814E+002
 342.00  1.3577E+002
 342.50  1.1953E+002
 343.00  1.3740E+002
 343.50  9.4317E+001
 344.00  5.1586E+001
 344.50  4.7642E+001
 345.00  1.0832E+002
 345.50  1.1875E+002
 346.00  1.2648E+002
 346.50  1.3509E+002
 347.00  1.2268E+002
 347.50  9.8940E+001
 348.00  1.0359E+002
 348.50  1.2094E+002
 349.00  1.4109E+002
 349.50  1.3803E+002
 350.00  1.1964E+002
 350.50  1.1390E+002
 351.00  1.1174E+002
 351.50  1.0973E+002
 352.00  9.5741E+001
 352.50  8.3296E+001
 353.00  7.6481E+001
 353.50  8.7053E+001
 354.00  1.1020E+002
 354.50  1.2643E+002
 355.00  1.3122E+002
 355.50  1.1283E+002
 356.00  9.1573E+001
 356.50  8.6313E+001
 357.00  8.1397E+001
 357.50  7.6361E+001
 358.00  7.3092E+001
 358.50  7.9758E+001
 359.00  1.0845E+002
 359.50  1.4007E+002
 360.00  1.5052E+002
 360.50  1.4243E+002
 361.00  1.1603E+002
 361.50  1.0169E+002
 362.00  1.0652E+002
 362.50  1.2055E+002
 363.00  1.3174E+002
 363.50  1.2535E+002
 364.00  1.1745E+002
 364.50  1.0846E+002
 365.00  1.0741E+002
 365.50  1.1209E+002
 366.00  1.0861E+002
 366.50  1.0758E+002
 367.00  1.1124E+002
 367.50  1.1794E+002
 368.00  1.3627E+002
 368.50  1.3272E+002
 369.00  1.2284E+002
 369.50  1.1140E+002
 370.00  9.7866E+001
 370.50  9.9846E+001
 371.00  1.0892E+002
 371.50  1.3776E+002
 372.00  1.6334E+002
 372.50  1.7177E+002
 373.00  1.6334E+002
 373.50  1.4173E+002
 374.00  1.2244E+002
 374.50  1.2212E+002
 375.00  1.1703E+002
 375.50  1.0807E+002
 376.00  1.1432E+002
 376.50  1.0450E+002
 377.00  9.8432E+001
 377.50  8.8311E+001
 378.00  7.8824E+001
 378.50  8.1625E+001
 379.00  7.7774E+001
 379.50  7.5045E+001
 380.00  7.2003E+001
 380.50  8.6390E+001
 381.00  1.0557E+002
 381.50  1.1283E+002
 382.00  1.1768E+002
 382.50  1.1639E+002
 383.00  1.2587E+002
 383.50  1.4308E+002
 384.00  1.5112E+002
 384.50  1.4909E+002
 385.00  1.4972E+002
 385.50  1.4933E+002
 386.00  1.3932E+002
 386.50  1.2907E+002
 387.00  1.2196E+002
 387.50  1.2078E+002
 388.00  1.2599E+002
 388.50  1.1910E+002
 389.00  1.0184E+002
 389.50  1.0624E+002
 390.00  1.1209E+002
 390.50  1.1521E+002
 391.00  1.1476E+002
 391.50  8.9875E+001
 392.00  6.6871E+001
 392.50  5.1272E+001
 393.00  3.9268E+001
 393.50  4.1307E+001
 394.00  5.1353E+001
 394.50  6.9593E+001
 395.00  9.2218E+001
 395.50  1.0282E+002
 396.00  1.1491E+002
 396.50  1.1928E+002
 397.00  1.2469E+002
 397.50  1.1374E+002
 398.00  9.9485E+001
 398.50  7.7334E+001
 399.00  6.2203E+001
 399.50  6.5738E+001
 400.00  7.5251E+001
 400.50  1.0184E+002
 401.00  1.2305E+002
 401.50  1.2542E+002
 402.00  1.0931E+002
 402.50  8.8500E+001
 403.00  9.2738E+001
 403.50  1.1581E+002
 404.00  1.4897E+002
 404.50  1.6346E+002
 405.00  1.7023E+002
 405.50  1.7085E+002
 406.00  1.6981E+002
 406.50  1.6014E+002
 407.00  1.1711E+002
 407.50  8.1167E+001
 408.00  5.0963E+001
 408.50  4.5513E+001
 409.00  7.2965E+001
 409.50  1.0119E+002
 410.00  1.3550E+002
 410.50  1.5195E+002
 411.00  1.4474E+002
 411.50  1.3256E+002
 412.00  1.1227E+002
 412.50  9.0024E+001
 413.00  7.9936E+001
 413.50  8.4288E+001
 414.00  1.1341E+002
 414.50  1.3323E+002
 415.00  1.4478E+002
 415.50  1.4280E+002
 416.00  1.4274E+002
 416.50  1.3653E+002
 417.00  1.2437E+002
 417.50  1.0275E+002
 418.00  7.9076E+001
 418.50  7.4737E+001
 419.00  6.3626E+001
 419.50  5.6519E+001
 420.00  6.5727E+001
 420.50  8.3072E+001
 421.00  1.1217E+002
 421.50  1.3202E+002
 422.00  1.2403E+002
 422.50  1.1422E+002
 423.00  1.1517E+002
 423.50  1.2163E+002
 424.00  1.2745E+002
 424.50  1.2487E+002
 425.00  1.1026E+002
 425.50  1.0194E+002
 426.00  1.0819E+002
 426.50  1.0687E+002
 427.00  1.0569E+002
 427.50  9.8681E+001
 428.00  9.3072E+001
 428.50  9.6137E+001
 429.00  1.0862E+002
 429.50  1.0263E+002
 430.00  8.7722E+001
 430.50  7.4838E+001
 431.00  8.0491E+001
 431.50  1.0597E+002
 432.00  1.2020E+002
 432.50  1.3152E+002
 433.00  1.3571E+002
 433.50  1.2480E+002
 434.00  1.2085E+002
 434.50  1.0914E+002
 435.00  1.1628E+002
 435.50  1.3985E+002
 436.00  1.4406E+002
 436.50  1.4889E+002
 437.00  1.3329E+002
 437.50  1.2517E+002
 438.00  1.3545E+002
 438.50  1.3968E+002
 439.00  1.5835E+002
 439.50  1.6237E+002
 440.00  1.4143E+002
 440.50  1.2347E+002
 441.00  1.0822E+002
 441.50  1.0552E+002
 442.00  1.0903E+002
 442.50  1.1451E+002
 443.00  1.0797E+002
 443.50  1.0520E+002
 444.00  1.0158E+002
 444.50  7.4305E+001
 445.00  5.8244E+001
 445.50  5.5602E+001
 446.00  5.8660E+001
 446.50  7.7241E+001
 447.00  9.3386E+001
 447.50  1.0185E+002
 448.00  1.2238E+002
 448.50  1.4134E+002
 449.00  1.5276E+002
 449.50  1.4024E+002
 450.00  1.1289E+002
 450.50  9.5734E+001
 451.00  8.4317E+001
 451.50  8.3494E+001
 452.00  6.5868E+001
 452.50  4.0189E+001
 453.00  2.7520E+001
 453.50  2.0843E+001
 454.00  4.1977E+001
 454.50  6.3999E+001
 455.00  9.1609E+001
 455.50  1.3465E+002
 456.00  1.5007E+002
 456.50  1.4284E+002
 457.00  1.1995E+002
 457.50  9.5485E+001
 458.00  1.0071E+002
 458.50  1.2042E+002
 459.00  1.3992E+002
 459.50  1.4406E+002
 460.00  1.3050E+002
 460.50  1.2314E+002
 461.00  1.2279E+002
 461.50  1.2632E+002
 462.00  1.3435E+002
 462.50  1.3676E+002
 463.00  1.2076E+002
 463.50  1.0292E+002
 464.00  8.6886E+001
 464.50  8.4520E+001
 465.00  8.7489E+001
 465.50  9.3491E+001
 466.00  8.7389E+001
 466.50  8.3121E+001
 467.00  8.5606E+001
 467.50  8.3479E+001
 468.00  8.4463E+001
 468.50  9.1439E+001
 469.00  9.6782E+001
 469.50  1.0183E+002
 470.00  1.0266E+002
 470.50  9.8931E+001
 471.00  8.9463E+001
 471.50  7.6179E+001
 472.00  7.5027E+001
 472.50  8.5841E+001
 473.00  1.0119E+002
 473.50  9.9551E+001
 474.00  1.0056E+002
 474.50  1.0586E+002
 475.00  1.1651E+002
 475.50  1.3664E+002
 476.00  1.3294E+002
 476.50  1.2555E+002
 477.00  1.2525E+002
 477.50  1.0266E+002
 478.00  7.8925E+001
 478.50  5.9251E+001
 479.00  5.1851E+001
 479.50  7.0439E+001
 480.00  9.5787E+001
 480.50  1.1798E+002
 481.00  1.3223E+002
 481.50  1.3425E+002
 482.00  1.2771E+002
 482.50  1.1685E+002
 483.00  1.1072E+002
 483.50  1.1924E+002
 484.00  1.3238E+002
 484.50  1.3383E+002
 485.00  1.2836E+002
 485.50  1.1251E+002
 486.00  9.1605E+001
 486.50  9.2554E+001
 487.00  9.7269E+001
 487.50  1.1490E+002
 488.00  1.2993E+002
 488.50  1.2269E+002
 489.00  9.7121E+001
 489.50  7.0215E+001
 490.00  7.4170E+001
 490.50  9.4376E+001
 491.00  1.2255E+002
 491.50  1.3871E+002
 492.00  1.2956E+002
 492.50  1.0966E+002
 493.00  7.3573E+001
 493.50  5.5964E+001
 494.00  5.7099E+001
 494.50  7.6441E+001
 495.00  1.0981E+002
 495.50  1.1740E+002
 496.00  1.2186E+002
 496.50  1.2393E+002
 497.00  1.1993E+002
 497.50  1.3325E+002
 498.00  1.5000E+002
 498.50  1.5480E+002
 499.00  1.4828E+002
 499.50  1.3517E+002
 500.00  1.2944E+002
 500.50  1.3539E+002
 501.00  1.4615E+002
 501.50  1.3415E+002
 502.00  1.0594E+002
 502.50  9.0565E+001
 503.00  8.5479E+001
 503.50  8.3405E+001
 504.00  8.3472E+001
 504.50  7.1539E+001
 505.00  7.6869E+001
 505.50  1.0313E+002
 506.00  1.2676E+002
 506.50  1.3788E+002
 507.00  1.3208E+002
 507.50  1.1362E+002
 508.00  1.1407E+002
 508.50  1.2982E+002
 509.00  1.4521E+002
 509.50  1.5640E+002
 510.00  1.5076E+002
 510.50  1.3321E+002
 511.00  1.2211E+002
 511.50  1.1272E+002
 512.00  1.1045E+002
 512.50  1.0531E+002
 513.00  1.0551E+002
 513.50  1.0866E+002
 514.00  1.1892E+002
 514.50  1.3005E+002
 515.00  1.3276E+002
 515.50  1.3772E+002
 516.00  1.3994E+002
 516.50  1.3067E+002
 517.00  1.1238E+002
 517.50  9.4749E+001
 518.00  7.8936E+001
 518.50  8.3849E+001
 519.00  1.0206E+002
 519.50  1.1317E+002
 520.00  1.1318E+002
 520.50  1.0675E+002
 521.00  8.8433E+001
 521.50  6.8153E+001
 522.00  6.0715E+001
 522.50  6.0692E+001
 523.00  7.5602E+001
 523.50  1.0210E+002
 524.00  1.2463E+002
 524.50  1.3994E+002
 525.00  1.4938E+002
 525.50  1.5005E+002
 526.00  1.3369E+002
 526.50  1.0772E+002
 527.00  7.6117E+001
 527.50  5.1398E+001
 528.00  5.4572E+001
 528.50  6.2726E+001
 529.00  7.0727E+001
 529.50  7.4767E+001
 530.00  9.4076E+001
 530.50  1.0769E+002
 531.00  1.2018E+002
 531.50  1.2432E+002
 532.00  9.5195E+001
 532.50  9.1700E+001
 533.00  9.4016E+001
 533.50  9.5153E+001
 534.00  1.2010E+002
 534.50  1.4102E+002
 535.00  1.6049E+002
 535.50  1.5402E+002
 536.00  1.2794E+002
 536.50  1.1205E+002
 537.00  9.9098E+001
 537.50  1.0213E+002
 538.00  1.0281E+002
 538.50  8.2305E+001
 539.00  8.8822E+001
 539.50  1.0015E+002
 540.00  1.0808E+002
 540.50  1.1489E+002
 541.00  1.1832E+002
 541.50  1.3652E+002
 542.00  1.4766E+002
 542.50  1.4302E+002
 543.00  1.2503E+002
 543.50  9.3478E+001
 544.00  8.3392E+001
 544.50  9.0996E+001
 545.00  9.8915E+001
 545.50  1.1014E+002
 546.00  1.1998E+002
 546.50  1.2001E+002
 547.00  1.1990E+002
 547.50  1.3065E+002
 548.00  1.3154E+002
 548.50  1.3822E+002
 549.00  1.4418E+002
 549.50  1.4047E+002
 550.00  1.3194E+002
 550.50  1.1730E+002
 551.00  9.4275E+001
 551.50  8.3488E+001
 552.00  8.7556E+001
 552.50  9.8797E+001
 553.00  1.2445E+002
 553.50  1.4600E+002
 554.00  1.5990E+002
 554.50  1.6926E+002
 555.00  1.7174E+002
 555.50  1.6221E+002
 556.00  1.5925E+002
 556.50  1.5756E+002
 557.00  1.4843E+002
 557.50  1.5924E+002
 558.00  1.6666E+002
 558.50  1.7309E+002
 559.00  1.8594E+002
 559.50  1.8904E+002
 560.00  1.8701E+002
 560.50  1.7604E+002
 561.00  1.5677E+002
 561.50  1.4511E+002
 562.00  1.4255E+002
 562.50  1.5392E+002
 563.00  1.7235E+002
 563.50  1.8681E+002
 564.00  2.0284E+002
 564.50  2.1076E+002
 565.00  2.1510E+002
 565.50  2.1764E+002
 566.00  2.3387E+002
 566.50  2.6737E+002
 567.00  2.9363E+002
 567.50  3.1088E+002
 568.00  3.1146E+002
 568.50  3.0094E+002
 569.00  2.9419E+002
 569.50  2.8437E+002
 570.00  2.8937E+002
 570.50  3.0719E+002
 571.00  3.3489E+002
 571.50  3.6237E+002
 572.00  3.7922E+002
 572.50  3.9209E+002
 573.00  3.9787E+002
 573.50  4.0675E+002
 574.00  4.1920E+002
 574.50  4.3108E+002
 575.00  4.5170E+002
 575.50  4.8901E+002
 576.00  5.3139E+002
 576.50  5.7209E+002
 577.00  6.0961E+002
 577.50  6.4403E+002
 578.00  6.6968E+002
 578.50  6.9642E+002
 579.00  7.3322E+002
 579.50  7.7282E+002
 580.00  8.1614E+002
 580.50  8.5972E+002
 581.00  9.0013E+002
 581.50  9.3657E+002
 582.00  9.7443E+002
 582.50  1.0389E+003
 583.00  1.1097E+003
 583.50  1.1885E+003
 584.00  1.2993E+003
 584.50  1.3933E+003
 585.00  1.4807E+003
 585.50  1.5661E+003
 586.00  1.6241E+003
 586.50  1.6918E+003
 587.00  1.7846E+003
 587.50  1.8937E+003
 588.00  2.0201E+003
 588.50  2.1502E+003
 589.00  2.2814E+003
 589.50  2.4302E+003
 590.00  2.5848E+003
 590.50  2.7580E+003
 591.00  2.9332E+003
 591.50  3.1153E+003
 592.00  3.3078E+003
 592.50  3.5016E+003
 593.00  3.7480E+003
 593.50  3.9973E+003
 594.00  4.2600E+003
 594.50  4.5484E+003
 595.00  4.8225E+003
 595.50  5.1425E+003
 596.00  5.5088E+003
 596.50  5.9136E+003
 597.00  6.3475E+003
 597.50  6.7925E+003
 598.00  7.2712E+003
 598.50  7.8157E+003
 599.00  8.4066E+003
 599.50  9.0420E+003
 600.00  9.6979E+003
 600.50  1.0347E+004
 601.00  1.1053E+004
 601.50  1.1830E+004
 602.00  1.2679E+004
 602.50  1.3587E+004
 603.00  1.4506E+004
 603.50  1.5425E+004
 604.00  1.6315E+004
 604.50  1.7180E+004
 605.00  1.7966E+004
 605.50  1.8657E+004
 606.00  1.9201E+004
 606.50  1.9547E+004
 607.00  1.9691E+004
 607.50  1.9542E+004
 608.00  1.9117E+004
 608.50  1.8415E+004
 609.00  1.7478E+004
 609.50  1.6330E+004
 610.00  1.5094E+004
 610.50  1.3839E+004
 611.00  1.2577E+004
 611.50  1.1382E+004
 612.00  1.0281E+004
 612.50  9.3151E+003
 613.00  8.5500E+003
 613.50  7.9331E+003
 614.00  7.4171E+003
 614.50  6.9653E+003
 615.00  6.5642E+003
 615.50  6.1906E+003
 616.00  5.8498E+003
 616.50  5.5470E+003
 617.00  5.2517E+003
 617.50  4.9583E+003
 618.00  4.6655E+003
 618.50  4.3769E+003
 619.00  4.0812E+003
 619.50  3.7999E+003
 620.00  3.5255E+003
 620.50  3.2673E+003
 621.00  3.0256E+003
 621.50  2.7773E+003
 622.00  2.5349E+003
 622.50  2.3122E+003
 623.00  2.1076E+003
 623.50  1.9355E+003
 624.00  1.7871E+003
 624.50  1.6330E+003
 625.00  1.4777E+003
 625.50  1.3189E+003
 626.00  1.1684E+003
 626.50  1.0499E+003
 627.00  9.4887E+002
 627.50  8.6237E+002
 628.00  7.8672E+002
 628.50  7.0761E+002
 629.00  6.3422E+002
 629.50  5.8206E+002
 630.00  5.4941E+002
 630.50  5.2538E+002
 631.00  5.1373E+002
 631.50  4.9760E+002
 632.00  4.6077E+002
 632.50  4.3709E+002
 633.00  4.1242E+002
 633.50  3.8725E+002
 634.00  3.8246E+002
 634.50  3.7233E+002
 635.00  3.6066E+002
 635.50  3.4405E+002
 636.00  3.2286E+002
 636.50  3.0202E+002
 637.00  2.7863E+002
 637.50  2.5941E+002
 638.00  2.4211E+002
 638.50  2.2470E+002
 639.00  2.2403E+002
 639.50  2.3447E+002
 640.00  2.4024E+002
 640.50  2.4900E+002
 641.00  2.4074E+002
 641.50  2.1466E+002
 642.00  1.8498E+002
 642.50  1.5405E+002
 643.00  1.3628E+002
 643.50  1.2499E+002
 644.00  1.2335E+002
 644.50  1.2788E+002
 645.00  1.3581E+002
 645.50  1.5255E+002
 646.00  1.6132E+002
 646.50  1.5644E+002
 647.00  1.4131E+002
 647.50  1.2632E+002
 648.00  1.1392E+002
 648.50  1.0822E+002
 649.00  1.0724E+002
 649.50  9.9853E+001
 650.00  9.2983E+001
 650.50  9.3922E+001
 651.00  1.0102E+002
 651.50  1.1048E+002
 652.00  1.1698E+002
 652.50  1.2033E+002
 653.00  1.1751E+002
 653.50  1.1790E+002
 654.00  1.2418E+002
 654.50  1.2053E+002
 655.00  1.1367E+002
 655.50  1.2173E+002
 656.00  1.2420E+002
 656.50  1.2725E+002
 657.00  1.3694E+002
 657.50  1.4005E+002
 658.00  1.4695E+002
 658.50  1.5373E+002
 659.00  1.5480E+002
 659.50  1.4263E+002
 660.00  1.1861E+002
 660.50  1.1093E+002
 661.00  1.2213E+002
 661.50  1.3513E+002
 662.00  1.5139E+002
 662.50  1.4899E+002
 663.00  1.3335E+002
 663.50  1.2159E+002
 664.00  1.2466E+002
 664.50  1.3275E+002
 665.00  1.3533E+002
 665.50  1.4610E+002
 666.00  1.4615E+002
 666.50  1.4263E+002
 667.00  1.3785E+002
 667.50  1.1454E+002
 668.00  1.0346E+002
 668.50  1.0197E+002
 669.00  1.0248E+002
 669.50  1.1530E+002
 670.00  1.2851E+002
 670.50  1.4251E+002
 671.00  1.5754E+002
 671.50  1.6723E+002
 672.00  1.6029E+002
 672.50  1.4200E+002
 673.00  1.2479E+002
 673.50  1.0737E+002
 674.00  1.0041E+002
 674.50  1.1907E+002
 675.00  1.3880E+002
 675.50  1.5512E+002
 676.00  1.7240E+002
 676.50  1.6831E+002
 677.00  1.5022E+002
 677.50  1.3930E+002
 678.00  1.3278E+002
 678.50  1.2515E+002
 679.00  1.2560E+002
 679.50  1.1788E+002
 680.00  1.0267E+002
 680.50  9.5139E+001
 681.00  8.8304E+001
 681.50  9.1195E+001
 682.00  9.8799E+001
 682.50  1.1330E+002
 683.00  1.2590E+002
 683.50  1.3695E+002
 684.00  1.4055E+002
 684.50  1.3094E+002
 685.00  1.2519E+002
 685.50  1.1853E+002
 686.00  1.1688E+002
 686.50  1.2050E+002
 687.00  1.2204E+002
 687.50  1.2311E+002
 688.00  1.2429E+002
 688.50  1.2238E+002
 689.00  1.1898E+002
 689.50  1.1115E+002
 690.00  9.8655E+001
 690.50  8.7723E+001
 691.00  8.0923E+001
 691.50  7.6364E+001
 692.00  7.6131E+001
 692.50  7.2066E+001
 693.00  6.7679E+001
 693.50  8.2465E+001
 694.00  9.6268E+001
 694.50  1.0834E+002
 695.00  1.2216E+002
 695.50  1.1469E+002
 696.00  9.8022E+001
 696.50  8.9889E+001
 697.00  9.1216E+001
 697.50  9.6072E+001
 698.00  1.1311E+002
 698.50  1.3851E+002
 699.00  1.5197E+002
 699.50  1.4299E+002
 700.00  1.2965E+002
 700.50  1.0738E+002
 701.00  9.0829E+001
 701.50  8.8215E+001
 702.00  8.6245E+001
 702.50  8.7564E+001
 703.00  9.7242E+001
 703.50  1.0837E+002
 704.00  1.1298E+002
 704.50  1.1980E+002
 705.00  1.1439E+002
 705.50  1.1249E+002
 706.00  1.2521E+002
 706.50  1.2414E+002
 707.00  1.1522E+002
 707.50  9.6818E+001
 708.00  6.6581E+001
 708.50  3.5186E+001
 709.00  1.9818E+001
 709.50  2.1545E+001
 710.00  3.9199E+001
 710.50  6.2805E+001
 711.00  8.7268E+001
 711.50  1.1218E+002
 712.00  1.3065E+002
 712.50  1.4288E+002
 713.00  1.3908E+002
 713.50  1.1929E+002
 714.00  1.0021E+002
 714.50  9.5493E+001
 715.00  1.0121E+002
 715.50  1.1647E+002
 716.00  1.3768E+002
 716.50  1.5494E+002
 717.00  1.6192E+002
 717.50  1.7439E+002
 718.00  1.6530E+002
 718.50  1.3864E+002
 719.00  1.2036E+002
 719.50  1.0555E+002
 720.00  1.0180E+002
 720.50  1.1555E+002
 721.00  1.3211E+002
 721.50  1.3584E+002
 722.00  1.3361E+002
 722.50  1.2883E+002
 723.00  1.2440E+002
 723.50  1.2844E+002
 724.00  1.4204E+002
 724.50  1.5229E+002
 725.00  1.5904E+002
 725.50  1.6046E+002
 726.00  1.5519E+002
 726.50  1.5741E+002
 727.00  1.5590E+002
 727.50  1.4447E+002
 728.00  1.4311E+002
 728.50  1.3826E+002
 729.00  1.3178E+002
 729.50  1.3675E+002
 730.00  1.3499E+002
 730.50  1.2968E+002
 731.00  1.2359E+002
 731.50  1.1755E+002
 732.00  1.1332E+002
 732.50  1.1140E+002
 733.00  1.1823E+002
 733.50  1.2199E+002
 734.00  1.2135E+002
 734.50  1.1232E+002
 735.00  9.8406E+001
 735.50  9.2700E+001
 736.00  8.1577E+001
 736.50  8.3577E+001
 737.00  9.3529E+001
 737.50  1.0278E+002
 738.00  1.2533E+002
 738.50  1.3791E+002
 739.00  1.3612E+002
 739.50  1.3325E+002
 740.00  1.1324E+002
 740.50  9.6387E+001
 741.00  8.9841E+001
 741.50  7.5130E+001
 742.00  7.4833E+001
 742.50  8.5858E+001
 743.00  9.3461E+001
 743.50  1.0288E+002
 744.00  1.1001E+002
 744.50  1.1197E+002
 745.00  1.0908E+002
 745.50  1.0632E+002
 746.00  9.4685E+001
 746.50  8.5058E+001
 747.00  9.1306E+001
 747.50  9.6305E+001
 748.00  1.0483E+002
 748.50  1.2128E+002
 749.00  1.2155E+002
 749.50  1.1584E+002
 750.00  1.1635E+002
 750.50  1.1845E+002
 751.00  1.2714E+002
 751.50  1.3282E+002
 752.00  1.2721E+002
 752.50  1.1670E+002
 753.00  1.0256E+002
 753.50  1.0197E+002
 754.00  1.1053E+002
 754.50  1.1201E+002
 755.00  1.1388E+002
 755.50  1.0658E+002
 756.00  8.9799E+001
 756.50  7.8116E+001
 757.00  6.9804E+001
 757.50  7.1430E+001
 758.00  8.3252E+001
 758.50  9.7382E+001
 759.00  1.1566E+002
 759.50  1.2931E+002
 760.00  1.4306E+002
 760.50  1.4859E+002
 761.00  1.3673E+002
 761.50  1.1270E+002
 762.00  8.6636E+001
 762.50  7.7213E+001
 763.00  7.5029E+001
 763.50  8.1333E+001
 764.00  9.6894E+001
 764.50  1.0924E+002
 765.00  1.2044E+002
 765.50  1.2320E+002
 766.00  1.2555E+002
 766.50  1.1292E+002
 767.00  1.0354E+002
 767.50  1.0978E+002
 768.00  1.0793E+002
 768.50  1.1809E+002
 769.00  1.2777E+002
 769.50  1.2407E+002
 770.00  1.1347E+002
 770.50  9.2660E+001
 771.00  7.7939E+001
 771.50  6.4857E+001
 772.00  6.5747E+001
 772.50  8.4810E+001
 773.00  9.3955E+001
 773.50  9.1870E+001
 774.00  9.1101E+001
 774.50  9.2910E+001
 775.00  9.3092E+001
 775.50  1.0126E+002
 776.00  1.1193E+002
 776.50  1.0585E+002
 777.00  9.4492E+001
 777.50  8.3384E+001
 778.00  7.5384E+001
 778.50  7.4087E+001
 779.00  8.0581E+001
 779.50  9.4636E+001
 780.00  1.0786E+002
 780.50  1.1354E+002
 781.00  1.3004E+002
 781.50  1.4596E+002
 782.00  1.5633E+002
 782.50  1.5449E+002
 783.00  1.3235E+002
 783.50  1.1591E+002
 784.00  1.0028E+002
 784.50  9.1378E+001
 785.00  1.0086E+002
 785.50  1.0267E+002
 786.00  1.1874E+002
 786.50  1.4547E+002
 787.00  1.5464E+002
 787.50  1.5774E+002
 788.00  1.4304E+002
 788.50  1.1200E+002
 789.00  9.7659E+001
 789.50  9.2026E+001
 790.00  8.4792E+001
 790.50  8.8802E+001
 791.00  9.7332E+001
 791.50  9.7953E+001
 792.00  1.1296E+002
 792.50  1.2660E+002
 793.00  1.2065E+002
 793.50  1.2290E+002
 794.00  1.2895E+002
 794.50  1.2612E+002
 795.00  1.2884E+002
 795.50  1.3544E+002
 796.00  1.3544E+002
 796.50  1.2972E+002
 797.00  1.2121E+002
 797.50  1.0974E+002
 798.00  1.0411E+002
 798.50  9.7419E+001
 799.00  9.1345E+001
 799.50  8.7031E+001
 800.00  8.3558E+001
 800.50  8.8630E+001
 801.00  1.0557E+002
 801.50  1.2277E+002
 802.00  1.3582E+002
 802.50  1.3608E+002
 803.00  1.2747E+002
 803.50  1.1917E+002
 804.00  1.1492E+002
 804.50  1.1572E+002
 805.00  1.2723E+002
 805.50  1.3401E+002
 806.00  1.2668E+002
 806.50  1.1239E+002
 807.00  9.5882E+001
 807.50  8.1901E+001
 808.00  7.3879E+001
 808.50  7.2562E+001
 809.00  7.8956E+001
 809.50  9.5131E+001
 810.00  1.1494E+002
 810.50  1.3237E+002
 811.00  1.3493E+002
 811.50  1.2235E+002
 812.00  1.1669E+002
 812.50  1.1929E+002
 813.00  1.1705E+002
 813.50  1.1694E+002
 814.00  1.1696E+002
 814.50  1.1740E+002
 815.00  1.1481E+002
 815.50  1.1384E+002
 816.00  1.1124E+002
 816.50  9.6845E+001
 817.00  9.7450E+001
 817.50  9.9524E+001
 818.00  9.3685E+001
 818.50  9.1164E+001
 819.00  7.6285E+001
 819.50  6.6697E+001
 820.00  7.7348E+001
 820.50  8.6065E+001
 821.00  9.7170E+001
 821.50  1.0826E+002
 822.00  1.1062E+002
 822.50  1.1708E+002
 823.00  1.2411E+002
 823.50  1.2488E+002
 824.00  1.2669E+002
 824.50  1.2529E+002
 825.00  1.2593E+002
 825.50  1.3139E+002
 826.00  1.3106E+002
 826.50  1.3571E+002
 827.00  1.3185E+002
 827.50  1.2086E+002
 828.00  1.1155E+002
 828.50  9.4197E+001
 829.00  7.5992E+001
 829.50  6.9533E+001
 830.00  7.0766E+001
 830.50  7.2063E+001
 831.00  8.6454E+001
 831.50  1.0036E+002
 832.00  1.0402E+002
 832.50  1.0392E+002
 833.00  1.0154E+002
 833.50  9.9762E+001
 834.00  1.0075E+002
 834.50  1.1121E+002
 835.00  1.1355E+002
 835.50  1.0157E+002
 836.00  8.0413E+001
 836.50  4.9280E+001
 837.00  3.0384E+001
 837.50  3.7118E+001
 838.00  5.9139E+001
 838.50  9.0093E+001
 839.00  1.1446E+002
 839.50  1.3119E+002
 840.00  1.4238E+002
 840.50  1.5381E+002
 841.00  1.6508E+002
 841.50  1.7155E+002
 842.00  1.6648E+002
 842.50  1.4763E+002
 843.00  1.2283E+002
 843.50  1.0543E+002
 844.00  9.6178E+001
 844.50  9.7662E+001
 845.00  1.0411E+002
 845.50  1.1132E+002
 846.00  1.2399E+002
 846.50  1.4353E+002
 847.00  1.6566E+002
 847.50  1.7889E+002
 848.00  1.7452E+002
 848.50  1.5547E+002
 849.00  1.2828E+002
 849.50  1.1493E+002
 850.00  1.1548E+002
 850.50  1.2440E+002
 851.00  1.3757E+002
 851.50  1.4800E+002
 852.00  1.4625E+002
 852.50  1.3026E+002
 853.00  1.0169E+002
 853.50  8.0402E+001
 854.00  6.8321E+001
 854.50  6.7199E+001
 855.00  7.9168E+001
 855.50  8.4989E+001
 856.00  8.9519E+001
 856.50  9.7094E+001
 857.00  1.0054E+002
 857.50  1.0935E+002
 858.00  1.1833E+002
 858.50  1.1812E+002
 859.00  1.1290E+002
 859.50  1.0802E+002
 860.00  1.0740E+002
 860.50  1.0744E+002
 861.00  1.1497E+002
 861.50  1.3345E+002
 862.00  1.3347E+002
 862.50  1.2038E+002
 863.00  1.0768E+002
 863.50  9.1082E+001
 864.00  9.0733E+001
 864.50  1.0390E+002
 865.00  1.1486E+002
 865.50  1.1002E+002
 866.00  9.2019E+001
 866.50  7.0794E+001
 867.00  5.4049E+001
 867.50  5.6789E+001
 868.00  7.4264E+001
 868.50  8.6158E+001
 869.00  9.7366E+001
 869.50  1.0058E+002
 870.00  8.9742E+001
 870.50  7.4405E+001
 871.00  7.5781E+001
 871.50  8.1545E+001
 872.00  8.4131E+001
 872.50  9.5776E+001
 873.00  1.0663E+002
 873.50  1.1555E+002
 874.00  1.3397E+002
 874.50  1.4317E+002
 875.00  1.4058E+002
 875.50  1.1731E+002
 876.00  8.3858E+001
 876.50  6.8578E+001
 877.00  7.1870E+001
 877.50  8.5276E+001
 878.00  9.8957E+001
 878.50  1.1753E+002
 879.00  1.3276E+002
 879.50  1.3808E+002
 880.00  1.3613E+002
 880.50  1.3238E+002
 881.00  1.2860E+002
 881.50  1.2804E+002
 882.00  1.3064E+002
 882.50  1.3214E+002
 883.00  1.2169E+002
 883.50  1.0519E+002
 884.00  1.0410E+002
 884.50  1.1736E+002
 885.00  1.2994E+002
 885.50  1.3963E+002
 886.00  1.4531E+002
 886.50  1.4024E+002
 887.00  1.3782E+002
 887.50  1.3274E+002
 888.00  1.2680E+002
 888.50  1.2849E+002
 889.00  1.2931E+002
 889.50  1.2691E+002
 890.00  1.2434E+002
 890.50  1.1684E+002
 891.00  1.0656E+002
 891.50  9.8592E+001
 892.00  9.5974E+001
 892.50  9.1773E+001
 893.00  8.9022E+001
 893.50  9.8456E+001
 894.00  1.1025E+002
 894.50  1.2045E+002
 895.00  1.3242E+002
 895.50  1.3266E+002
 896.00  1.3290E+002
 896.50  1.5044E+002
 897.00  1.6521E+002
 897.50  1.7040E+002
 898.00  1.7253E+002
 898.50  1.5288E+002
 899.00  1.2919E+002
 899.50  1.1696E+002
 900.00  9.7457E+001
 900.50  9.2817E+001
 901.00  1.0684E+002
 901.50  1.2578E+002
 902.00  1.5277E+002
 902.50  1.7200E+002
 903.00  1.6767E+002
 903.50  1.5069E+002
 904.00  1.3372E+002
 904.50  1.3271E+002
 905.00  1.3252E+002
 905.50  1.2619E+002
 906.00  1.1277E+002
 906.50  9.1602E+001
 907.00  7.5604E+001
 907.50  7.8721E+001
 908.00  9.1472E+001
 908.50  9.9404E+001
 909.00  1.0716E+002
 909.50  1.1731E+002
 910.00  1.3131E+002
 910.50  1.4646E+002
 911.00  1.6385E+002
 911.50  1.7052E+002
 912.00  1.5453E+002
 912.50  1.2454E+002
 913.00  9.7191E+001
 913.50  7.6823E+001
 914.00  6.7571E+001
 914.50  7.6152E+001
 915.00  8.3129E+001
 915.50  8.2931E+001
 916.00  8.8907E+001
 916.50  9.5005E+001
 917.00  9.4378E+001
 917.50  1.0103E+002
 918.00  1.0050E+002
 918.50  8.9496E+001
 919.00  8.1012E+001
 919.50  7.6277E+001
 920.00  7.0216E+001
 920.50  6.6721E+001
 921.00  7.1128E+001
 921.50  8.9454E+001
 922.00  1.1579E+002
 922.50  1.3964E+002
 923.00  1.4586E+002
 923.50  1.3654E+002
 924.00  1.1121E+002
 924.50  8.0485E+001
 925.00  6.6200E+001
 925.50  7.4528E+001
 926.00  9.0951E+001
 926.50  1.0429E+002
 927.00  1.1983E+002
 927.50  1.2199E+002
 928.00  1.1450E+002
 928.50  1.1564E+002
 929.00  1.1613E+002
 929.50  1.1802E+002
 930.00  1.2532E+002
 930.50  1.3667E+002
 931.00  1.4233E+002
 931.50  1.4038E+002
 932.00  1.2963E+002
 932.50  1.1450E+002
 933.00  1.0121E+002
 933.50  9.2396E+001
 934.00  1.0082E+002
 934.50  1.0834E+002
 935.00  9.9246E+001
 935.50  9.0789E+001
 936.00  8.0640E+001
 936.50  6.9609E+001
 937.00  7.3465E+001
 937.50  8.2963E+001
 938.00  9.4432E+001
 938.50  1.0988E+002
 939.00  1.2728E+002
 939.50  1.4599E+002
 940.00  1.5150E+002
 940.50  1.3891E+002
 941.00  1.1988E+002
 941.50  1.0441E+002
 942.00  9.2014E+001
 942.50  8.3593E+001
 943.00  8.2161E+001
 943.50  8.7432E+001
 944.00  9.9398E+001
 944.50  1.1758E+002
 945.00  1.5026E+002
 945.50  1.6919E+002
 946.00  1.6009E+002
 946.50  1.4981E+002
 947.00  1.4442E+002
 947.50  1.3102E+002
 948.00  1.2205E+002
 948.50  1.1880E+002
 949.00  1.0554E+002
 949.50  7.9804E+001
 950.00  6.7180E+001
 950.50  6.7136E+001
 951.00  7.2856E+001
 951.50  8.5990E+001
 952.00  1.0916E+002
 952.50  1.3072E+002
 953.00  1.3191E+002
 953.50  1.2574E+002
 954.00  1.2682E+002
 954.50  1.2524E+002
 955.00  1.2857E+002
 955.50  1.3797E+002
 956.00  1.3539E+002
 956.50  1.2780E+002
 957.00  1.1240E+002
 957.50  9.1660E+001
 958.00  7.7694E+001
 958.50  7.9005E+001
 959.00  8.5062E+001
 959.50  9.7170E+001
 960.00  1.1458E+002
 960.50  1.2960E+002
 961.00  1.3664E+002
 961.50  1.4000E+002
 962.00  1.3980E+002
 962.50  1.3756E+002
 963.00  1.2601E+002
 963.50  1.0889E+002
 964.00  1.0410E+002
 964.50  1.0729E+002
 965.00  1.0898E+002
 965.50  1.2419E+002
 966.00  1.3476E+002
 966.50  1.3133E+002
 967.00  1.2739E+002
 967.50  1.2486E+002
 968.00  1.2599E+002
 968.50  1.3245E+002
 969.00  1.3250E+002
 969.50  1.2888E+002
 970.00  1.1959E+002
 970.50  9.8375E+001
 971.00  8.1028E+001
 971.50  8.2995E+001
 972.00  9.6922E+001
 972.50  1.2329E+002
 973.00  1.5168E+002
 973.50  1.7582E+002
 974.00  1.8782E+002
 974.50  1.8017E+002
 975.00  1.6706E+002
 975.50  1.5108E+002
 976.00  1.2889E+002
 976.50  1.1763E+002
 977.00  1.1685E+002
 977.50  1.1534E+002
 978.00  1.1456E+002
 978.50  1.1337E+002
 979.00  1.1278E+002
 979.50  1.1352E+002
 980.00  1.1860E+002
 980.50  1.2110E+002
 981.00  1.1748E+002
 981.50  1.0876E+002
 982.00  9.7268E+001
 982.50  1.0033E+002
 983.00  1.0717E+002
 983.50  1.0778E+002
 984.00  1.1339E+002
 984.50  1.1671E+002
 985.00  1.1123E+002
 985.50  1.1296E+002
 986.00  1.1852E+002
 986.50  1.1550E+002
 987.00  1.1705E+002
 987.50  1.1800E+002
 988.00  1.0979E+002
 988.50  1.0810E+002
 989.00  1.1421E+002
 989.50  1.1758E+002
 990.00  1.1892E+002
 990.50  1.2391E+002
 991.00  1.3305E+002
 991.50  1.3519E+002
 992.00  1.3696E+002
 992.50  1.3108E+002
 993.00  1.0960E+002
 993.50  8.8844E+001
 994.00  6.6438E+001
 994.50  5.3071E+001
 995.00  6.5068E+001
 995.50  7.3635E+001
 996.00  8.1842E+001
 996.50  9.5867E+001
 997.00  9.5993E+001
 997.50  9.5336E+001
 998.00  1.0799E+002
 998.50  1.2279E+002
 999.00  1.3594E+002
 999.50  1.4373E+002
1000.00  1.3813E+002
1000.50  1.1002E+002
1001.00  8.7498E+001
1001.50  8.1297E+001
1002.00  7.4968E+001
1002.50  7.8863E+001
1003.00  9.8896E+001
1003.50  1.1886E+002
1004.00  1.3527E+002
1004.50  1.4039E+002
1005.00  1.3297E+002
1005.50  1.1149E+002
1006.00  9.0065E+001
1006.50  8.6791E+001
1007.00  9.6227E+001
1007.50  1.1104E+002
1008.00  1.2504E+002
1008.50  1.1625E+002
1009.00  9.4883E+001
1009.50  7.9955E+001
1010.00  6.5852E+001
1010.50  5.7819E+001
1011.00  6.5774E+001
1011.50  7.6698E+001
1012.00  8.1789E+001
1012.50  8.4319E+001
1013.00  8.4924E+001
1013.50  7.6762E+001
1014.00  6.8089E+001
1014.50  6.2979E+001
1015.00  6.1195E+001
1015.50  6.7059E+001
1016.00  7.1158E+001
1016.50  7.0879E+001
1017.00  7.5993E+001
1017.50  8.2808E+001
1018.00  8.8097E+001
1018.50  9.5376E+001
1019.00  1.0033E+002
1019.50  9.3773E+001
1020.00  8.7312E+001
1020.50  9.1919E+001
1021.00  9.7949E+001
1021.50  1.0743E+002
1022.00  1.2294E+002
1022.50  1.2935E+002
1023.00  1.2670E+002
1023.50  1.2832E+002
1024.00  1.2337E+002
1024.50  1.0053E+002
1025.00  8.7548E+001
1025.50  8.0430E+001
1026.00  6.7451E+001
1026.50  6.1934E+001
1027.00  6.4578E+001
1027.50  6.3582E+001
1028.00  6.5328E+001
1028.50  7.6686E+001
1029.00  9.4385E+001
1029.50  1.1193E+002
1030.00  1.2505E+002
1030.50  1.2763E+002
1031.00  1.2414E+002
1031.50  1.1709E+002
1032.00  1.0965E+002
1032.50  1.1196E+002
1033.00  1.1814E+002
1033.50  1.2314E+002
1034.00  1.2689E+002
1034.50  1.2960E+002
1035.00  1.2425E+002
1035.50  1.1790E+002
1036.00  1.1121E+002
1036.50  9.6357E+001
1037.00  7.1786E+001
1037.50  5.1597E+001
1038.00  4.7273E+001
1038.50  5.7412E+001
1039.00  8.0123E+001
1039.50  1.1064E+002
1040.00  1.2888E+002
1040.50  1.3139E+002
1041.00  1.3967E+002
1041.50  1.4984E+002
1042.00  1.5671E+002
1042.50  1.5820E+002
1043.00  1.5454E+002
1043.50  1.4896E+002
1044.00  1.4537E+002
1044.50  1.4160E+002
1045.00  1.4219E+002
1045.50  1.3797E+002
1046.00  1.1627E+002
1046.50  9.3226E+001
1047.00  8.8983E+001
1047.50  9.3884E+001
1048.00  1.0907E+002
1048.50  1.3277E+002
1049.00  1.4683E+002
1049.50  1.4559E+002
1050.00  1.4010E+002
1050.50  1.3264E+002
1051.00  1.2505E+002
1051.50  1.1729E+002
1052.00  1.0503E+002
1052.50  9.1431E+001
1053.00  7.9475E+001
1053.50  7.2033E+001
1054.00  6.8746E+001
1054.50  7.3613E+001
1055.00  9.2950E+001
1055.50  1.1317E+002
1056.00  1.1994E+002
1056.50  1.2951E+002
1057.00  1.2845E+002
1057.50  1.1446E+002
1058.00  1.0834E+002
1058.50  1.0938E+002
1059.00  1.1311E+002
1059.50  1.1646E+002
1060.00  1.1868E+002
1060.50  1.2396E+002
1061.00  1.2747E+002
1061.50  1.2876E+002
1062.00  1.3233E+002
1062.50  1.3070E+002
1063.00  1.2947E+002
1063.50  1.2464E+002
1064.00  1.1563E+002
1064.50  1.1162E+002
1065.00  1.1007E+002
1065.50  1.0803E+002
1066.00  1.0666E+002
1066.50  1.0475E+002
1067.00  1.0422E+002
1067.50  1.0021E+002
1068.00  1.0395E+002
1068.50  1.1888E+002
1069.00  1.1613E+002
1069.50  1.0067E+002
1070.00  8.8539E+001
1070.50  7.1013E+001
1071.00  5.3641E+001
1071.50  5.4981E+001
1072.00  7.2494E+001
1072.50  9.3259E+001
1073.00  1.1035E+002
1073.50  1.2846E+002
1074.00  1.3190E+002
1074.50  1.2615E+002
1075.00  1.2056E+002
1075.50  1.1709E+002
1076.00  1.1268E+002
1076.50  1.0601E+002
1077.00  9.7598E+001
1077.50  8.6335E+001
1078.00  7.6974E+001
1078.50  7.6385E+001
1079.00  8.5299E+001
1079.50  9.6862E+001
1080.00  1.0568E+002
1080.50  1.1139E+002
1081.00  1.1576E+002
1081.50  1.1707E+002
1082.00  1.1459E+002
1082.50  1.1418E+002
1083.00  1.1825E+002
1083.50  1.1646E+002
1084.00  1.1495E+002
1084.50  1.1729E+002
1085.00  1.1386E+002
1085.50  1.0696E+002
1086.00  9.9613E+001
1086.50  9.6242E+001
1087.00  9.4903E+001
1087.50  9.3746E+001
1088.00  9.4128E+001
1088.50  9.3193E+001
1089.00  8.8134E+001
1089.50  8.7070E+001
1090.00  9.7373E+001
1090.50  1.1419E+002
1091.00  1.2663E+002
1091.50  1.4261E+002
1092.00  1.5181E+002
1092.50  1.5552E+002
1093.00  1.5942E+002
1093.50  1.5845E+002
1094.00  1.4761E+002
1094.50  1.3400E+002
1095.00  1.1650E+002
1095.50  9.6153E+001
1096.00  8.3921E+001
1096.50  8.5716E+001
1097.00  9.2697E+001
1097.50  9.9122E+001
1098.00  1.0610E+002
1098.50  1.1920E+002
1099.00  1.2253E+002
1099.50  1.1239E+002
1100.00  1.0085E+002
1100.50  9.2587E+001
1101.00  7.5920E+001
1101.50  5.4529E+001
1102.00  4.6678E+001
1102.50  5.1851E+001
1103.00  5.9672E+001
1103.50  7.5098E+001
1104.00  9.1925E+001
1104.50  9.8734E+001
1105.00  9.8039E+001
1105.50  9.4486E+001
1106.00  9.7250E+001
1106.50  1.0892E+002
1107.00  1.2923E+002
1107.50  1.4184E+002
1108.00  1.4729E+002
1108.50  1.4911E+002
1109.00  1.4513E+002
1109.50  1.4057E+002
1110.00  1.3806E+002
1110.50  1.3137E+002
1111.00  1.1997E+002
1111.50  1.0701E+002
1112.00  1.0383E+002
1112.50  1.0215E+002
1113.00  1.0633E+002
1113.50  1.2006E+002
1114.00  1.2114E+002
1114.50  1.1121E+002
1115.00  1.0672E+002
1115.50  1.0180E+002
1116.00  9.5978E+001
1116.50  9.7214E+001
1117.00  1.0277E+002
1117.50  1.0855E+002
1118.00  1.1248E+002
1118.50  1.0974E+002
1119.00  1.0316E+002
1119.50  9.8514E+001
1120.00  9.7545E+001
1120.50  1.0719E+002
1121.00  1.2079E+002
1121.50  1.3160E+002
1122.00  1.3588E+002
1122.50  1.2830E+002
1123.00  1.1331E+002
1123.50  1.0979E+002
1124.00  1.1591E+002
1124.50  1.2556E+002
1125.00  1.3762E+002
1125.50  1.3585E+002
1126.00  1.1580E+002
1126.50  9.3397E+001
1127.00  7.2266E+001
1127.50  6.6094E+001
1128.00  7.6295E+001
1128.50  8.7820E+001
1129.00  1.0736E+002
1129.50  1.3281E+002
1130.00  1.5026E+002
1130.50  1.5879E+002
1131.00  1.6057E+002
1131.50  1.4712E+002
1132.00  1.2368E+002
1132.50  1.0786E+002
1133.00  1.0300E+002
1133.50  1.0742E+002
1134.00  1.1494E+002
1134.50  1.0958E+002
1135.00  9.8469E+001
1135.50  9.4421E+001
1136.00  8.5367E+001
1136.50  8.0894E+001
1137.00  8.8071E+001
1137.50  9.4862E+001
1138.00  9.8929E+001
1138.50  1.0592E+002
1139.00  1.0794E+002
1139.50  1.0457E+002
1140.00  1.0022E+002
1140.50  9.3952E+001
1141.00  9.3865E+001
1141.50  1.0744E+002
1142.00  1.1867E+002
1142.50  1.2633E+002
1143.00  1.3299E+002
1143.50  1.2879E+002
1144.00  1.1381E+002
1144.50  1.0215E+002
1145.00  9.4245E+001
1145.50  8.4356E+001
1146.00  8.1918E+001
1146.50  8.5499E+001
1147.00  8.9557E+001
1147.50  9.9443E+001
1148.00  1.0709E+002
1148.50  1.0517E+002
1149.00  1.0319E+002
1149.50  1.0078E+002
1150.00  9.7837E+001
1150.50  9.8678E+001
1151.00  9.5012E+001
1151.50  8.3389E+001
1152.00  7.4086E+001
1152.50  7.3407E+001
1153.00  7.7174E+001
1153.50  9.4320E+001
1154.00  1.2295E+002
1154.50  1.4051E+002
1155.00  1.5272E+002
1155.50  1.6378E+002
1156.00  1.6247E+002
1156.50  1.5652E+002
1157.00  1.4804E+002
1157.50  1.2529E+002
1158.00  1.0044E+002
1158.50  7.5688E+001
1159.00  6.0741E+001
1159.50  5.5164E+001
1160.00  5.6786E+001
1160.50  7.1281E+001
1161.00  8.8851E+001
1161.50  9.6867E+001
1162.00  9.8888E+001
1162.50  9.8477E+001
1163.00  9.4006E+001
1163.50  9.3649E+001
1164.00  9.9087E+001
1164.50  1.0367E+002
1165.00  1.0388E+002
1165.50  9.9867E+001
1166.00  9.2133E+001
1166.50  8.5825E+001
1167.00  8.6149E+001
1167.50  8.9203E+001
1168.00  8.8745E+001
1168.50  8.3227E+001
1169.00  7.5139E+001
1169.50  7.5892E+001
1170.00  8.1109E+001
1170.50  8.9622E+001
1171.00  1.0699E+002
1171.50  1.2187E+002
1172.00  1.2757E+002
1172.50  1.2816E+002
1173.00  1.1977E+002
1173.50  1.0535E+002
1174.00  9.1584E+001
1174.50  8.4492E+001
1175.00  8.0021E+001
1175.50  7.4742E+001
1176.00  7.8376E+001
1176.50  9.0745E+001
1177.00  1.0090E+002
1177.50  1.3354E+002
1178.00  1.3976E+002
1178.50  1.0980E+002
