" File: Users\mwalki\Desktop\Lab 5\Spectrometer\
" SCOPE->  Wave:735.15nm  Pix:1050  Val:108.645  Time:30ms  Avg:1  Sm:1  Sg:0  Tc:off  SNAP  Xt:3  Ch:1  Xtrig
 340.00  1.1694E+002
 340.50  1.4759E+002
 341.00  1.5195E+002
 341.50  1.0710E+002
 342.00  6.7751E+001
 342.50  9.3984E+001
 343.00  1.3117E+002
 343.50  1.3058E+002
 344.00  1.7257E+002
 344.50  1.8787E+002
 345.00  1.6269E+002
 345.50  1.7733E+002
 346.00  1.5819E+002
 346.50  1.5732E+002
 347.00  1.7625E+002
 347.50  1.3607E+002
 348.00  1.1639E+002
 348.50  1.1284E+002
 349.00  1.0191E+002
 349.50  8.8095E+001
 350.00  7.5361E+001
 350.50  7.6481E+001
 351.00  1.0032E+002
 351.50  1.2430E+002
 352.00  1.4360E+002
 352.50  1.4204E+002
 353.00  1.2422E+002
 353.50  1.1832E+002
 354.00  1.1624E+002
 354.50  1.3050E+002
 355.00  1.4371E+002
 355.50  1.3280E+002
 356.00  1.1941E+002
 356.50  9.9128E+001
 357.00  8.8482E+001
 357.50  8.1063E+001
 358.00  8.8486E+001
 358.50  1.0659E+002
 359.00  1.1342E+002
 359.50  1.1968E+002
 360.00  1.1671E+002
 360.50  1.0853E+002
 361.00  9.6657E+001
 361.50  9.2407E+001
 362.00  1.0000E+002
 362.50  1.1793E+002
 363.00  1.3158E+002
 363.50  1.2365E+002
 364.00  1.1117E+002
 364.50  1.0519E+002
 365.00  1.0584E+002
 365.50  1.0952E+002
 366.00  1.1341E+002
 366.50  1.0083E+002
 367.00  7.9528E+001
 367.50  5.9235E+001
 368.00  4.5344E+001
 368.50  6.8827E+001
 369.00  9.5028E+001
 369.50  1.0578E+002
 370.00  9.9233E+001
 370.50  7.9884E+001
 371.00  7.9049E+001
 371.50  9.7611E+001
 372.00  1.2039E+002
 372.50  1.3165E+002
 373.00  1.2614E+002
 373.50  1.1487E+002
 374.00  1.0061E+002
 374.50  1.0742E+002
 375.00  1.2944E+002
 375.50  1.4994E+002
 376.00  1.5636E+002
 376.50  1.4017E+002
 377.00  1.1935E+002
 377.50  1.1455E+002
 378.00  1.1691E+002
 378.50  1.2598E+002
 379.00  1.2329E+002
 379.50  1.1714E+002
 380.00  1.1702E+002
 380.50  1.1646E+002
 381.00  1.2108E+002
 381.50  1.0901E+002
 382.00  1.0093E+002
 382.50  9.3999E+001
 383.00  8.6833E+001
 383.50  8.6819E+001
 384.00  7.2181E+001
 384.50  7.1179E+001
 385.00  7.5931E+001
 385.50  9.0812E+001
 386.00  1.0142E+002
 386.50  1.0068E+002
 387.00  8.1679E+001
 387.50  8.2117E+001
 388.00  9.2915E+001
 388.50  1.0556E+002
 389.00  1.1090E+002
 389.50  9.5481E+001
 390.00  8.7199E+001
 390.50  9.7497E+001
 391.00  1.1353E+002
 391.50  1.1808E+002
 392.00  1.2464E+002
 392.50  1.1412E+002
 393.00  1.1129E+002
 393.50  1.1261E+002
 394.00  1.0049E+002
 394.50  1.0848E+002
 395.00  1.1907E+002
 395.50  1.2093E+002
 396.00  1.2546E+002
 396.50  1.1027E+002
 397.00  1.1591E+002
 397.50  1.3513E+002
 398.00  1.5143E+002
 398.50  1.5672E+002
 399.00  1.5317E+002
 399.50  1.3010E+002
 400.00  1.2578E+002
 400.50  1.3332E+002
 401.00  1.4648E+002
 401.50  1.6227E+002
 402.00  1.5064E+002
 402.50  1.2577E+002
 403.00  1.0375E+002
 403.50  9.1401E+001
 404.00  8.4095E+001
 404.50  9.3148E+001
 405.00  1.0798E+002
 405.50  1.2238E+002
 406.00  1.2868E+002
 406.50  1.2396E+002
 407.00  1.1828E+002
 407.50  1.1490E+002
 408.00  1.1025E+002
 408.50  1.0134E+002
 409.00  1.0739E+002
 409.50  1.3054E+002
 410.00  1.4297E+002
 410.50  1.3105E+002
 411.00  1.1192E+002
 411.50  7.7459E+001
 412.00  6.1151E+001
 412.50  4.2701E+001
 413.00  2.8559E+001
 413.50  4.1628E+001
 414.00  7.6025E+001
 414.50  1.0500E+002
 415.00  1.1533E+002
 415.50  1.1575E+002
 416.00  1.0557E+002
 416.50  1.0883E+002
 417.00  1.1857E+002
 417.50  1.2943E+002
 418.00  1.3773E+002
 418.50  1.3374E+002
 419.00  1.2957E+002
 419.50  1.1320E+002
 420.00  1.1457E+002
 420.50  1.2216E+002
 421.00  1.2704E+002
 421.50  1.3720E+002
 422.00  1.3681E+002
 422.50  1.3370E+002
 423.00  1.1424E+002
 423.50  9.9360E+001
 424.00  9.2048E+001
 424.50  9.3147E+001
 425.00  1.0698E+002
 425.50  1.2136E+002
 426.00  1.5227E+002
 426.50  1.8467E+002
 427.00  1.8674E+002
 427.50  1.5335E+002
 428.00  1.1783E+002
 428.50  9.9847E+001
 429.00  1.0844E+002
 429.50  1.2624E+002
 430.00  1.2615E+002
 430.50  1.1410E+002
 431.00  9.5016E+001
 431.50  7.0213E+001
 432.00  5.4572E+001
 432.50  5.5308E+001
 433.00  5.8848E+001
 433.50  6.5635E+001
 434.00  8.3841E+001
 434.50  1.1026E+002
 435.00  1.4208E+002
 435.50  1.4705E+002
 436.00  1.2875E+002
 436.50  1.0193E+002
 437.00  9.7853E+001
 437.50  1.1018E+002
 438.00  1.1855E+002
 438.50  1.2797E+002
 439.00  1.2408E+002
 439.50  1.2296E+002
 440.00  1.3233E+002
 440.50  1.3878E+002
 441.00  1.4155E+002
 441.50  1.4613E+002
 442.00  1.3610E+002
 442.50  1.1981E+002
 443.00  1.0938E+002
 443.50  1.0765E+002
 444.00  1.0131E+002
 444.50  1.0030E+002
 445.00  8.9922E+001
 445.50  8.9634E+001
 446.00  1.0212E+002
 446.50  1.2371E+002
 447.00  1.3276E+002
 447.50  1.2956E+002
 448.00  1.2592E+002
 448.50  1.1149E+002
 449.00  1.1800E+002
 449.50  1.0760E+002
 450.00  9.7157E+001
 450.50  9.5916E+001
 451.00  9.1268E+001
 451.50  9.7617E+001
 452.00  1.1101E+002
 452.50  1.2217E+002
 453.00  1.2851E+002
 453.50  1.3075E+002
 454.00  1.2500E+002
 454.50  1.2498E+002
 455.00  1.4082E+002
 455.50  1.5844E+002
 456.00  1.5683E+002
 456.50  1.4869E+002
 457.00  1.3126E+002
 457.50  1.2048E+002
 458.00  1.3324E+002
 458.50  1.3448E+002
 459.00  1.4139E+002
 459.50  1.4460E+002
 460.00  1.4180E+002
 460.50  1.4449E+002
 461.00  1.4146E+002
 461.50  1.3946E+002
 462.00  1.3717E+002
 462.50  1.2280E+002
 463.00  1.1356E+002
 463.50  1.0627E+002
 464.00  1.1556E+002
 464.50  1.3767E+002
 465.00  1.4428E+002
 465.50  1.3547E+002
 466.00  1.2664E+002
 466.50  1.1038E+002
 467.00  1.0902E+002
 467.50  1.0820E+002
 468.00  1.0245E+002
 468.50  1.0104E+002
 469.00  1.0015E+002
 469.50  1.0498E+002
 470.00  1.2094E+002
 470.50  1.1300E+002
 471.00  1.0232E+002
 471.50  9.5545E+001
 472.00  8.5598E+001
 472.50  8.5011E+001
 473.00  8.9128E+001
 473.50  1.0420E+002
 474.00  1.1290E+002
 474.50  1.1968E+002
 475.00  1.1639E+002
 475.50  1.1549E+002
 476.00  1.3074E+002
 476.50  1.3491E+002
 477.00  1.3820E+002
 477.50  1.2928E+002
 478.00  1.2524E+002
 478.50  1.3212E+002
 479.00  1.4222E+002
 479.50  1.5441E+002
 480.00  1.6076E+002
 480.50  1.4041E+002
 481.00  1.1209E+002
 481.50  9.0417E+001
 482.00  6.8845E+001
 482.50  7.4849E+001
 483.00  8.0554E+001
 483.50  8.7712E+001
 484.00  9.4810E+001
 484.50  1.0073E+002
 485.00  1.2214E+002
 485.50  1.4930E+002
 486.00  1.8485E+002
 486.50  1.9696E+002
 487.00  1.8750E+002
 487.50  1.6821E+002
 488.00  1.5178E+002
 488.50  1.3424E+002
 489.00  1.2682E+002
 489.50  1.2965E+002
 490.00  1.3404E+002
 490.50  1.5507E+002
 491.00  1.7304E+002
 491.50  1.8774E+002
 492.00  1.7608E+002
 492.50  1.5913E+002
 493.00  1.4110E+002
 493.50  1.3444E+002
 494.00  1.3839E+002
 494.50  1.2989E+002
 495.00  1.1775E+002
 495.50  1.0685E+002
 496.00  1.1694E+002
 496.50  1.3161E+002
 497.00  1.3711E+002
 497.50  1.3181E+002
 498.00  1.1248E+002
 498.50  8.9224E+001
 499.00  7.3716E+001
 499.50  7.5231E+001
 500.00  8.8965E+001
 500.50  1.1313E+002
 501.00  1.2626E+002
 501.50  1.3212E+002
 502.00  1.3294E+002
 502.50  1.1578E+002
 503.00  1.1024E+002
 503.50  1.0373E+002
 504.00  1.0983E+002
 504.50  1.1944E+002
 505.00  1.2064E+002
 505.50  1.1830E+002
 506.00  1.3027E+002
 506.50  1.4652E+002
 507.00  1.5758E+002
 507.50  1.5284E+002
 508.00  1.4310E+002
 508.50  1.2726E+002
 509.00  1.4057E+002
 509.50  1.5143E+002
 510.00  1.5243E+002
 510.50  1.4743E+002
 511.00  1.3024E+002
 511.50  1.2646E+002
 512.00  1.2430E+002
 512.50  1.3196E+002
 513.00  1.4187E+002
 513.50  1.4046E+002
 514.00  1.4090E+002
 514.50  1.2391E+002
 515.00  1.0109E+002
 515.50  8.9751E+001
 516.00  1.0032E+002
 516.50  1.1498E+002
 517.00  1.2075E+002
 517.50  1.1467E+002
 518.00  1.1748E+002
 518.50  1.1689E+002
 519.00  1.1763E+002
 519.50  1.1707E+002
 520.00  1.0148E+002
 520.50  1.0982E+002
 521.00  1.3050E+002
 521.50  1.3434E+002
 522.00  1.2603E+002
 522.50  1.1170E+002
 523.00  1.0835E+002
 523.50  1.1287E+002
 524.00  1.1049E+002
 524.50  9.5597E+001
 525.00  7.7351E+001
 525.50  8.4775E+001
 526.00  1.0347E+002
 526.50  1.1171E+002
 527.00  1.0730E+002
 527.50  9.1210E+001
 528.00  9.5394E+001
 528.50  9.8812E+001
 529.00  1.1126E+002
 529.50  1.2351E+002
 530.00  1.1022E+002
 530.50  1.0702E+002
 531.00  9.9523E+001
 531.50  9.2568E+001
 532.00  1.0988E+002
 532.50  1.2971E+002
 533.00  1.3703E+002
 533.50  1.3980E+002
 534.00  1.3089E+002
 534.50  1.1642E+002
 535.00  1.0555E+002
 535.50  9.4379E+001
 536.00  9.3977E+001
 536.50  9.7143E+001
 537.00  1.1007E+002
 537.50  1.2440E+002
 538.00  1.3841E+002
 538.50  1.5644E+002
 539.00  1.6076E+002
 539.50  1.6671E+002
 540.00  1.6887E+002
 540.50  1.7477E+002
 541.00  1.8558E+002
 541.50  1.8692E+002
 542.00  1.7501E+002
 542.50  1.6584E+002
 543.00  1.5410E+002
 543.50  1.3803E+002
 544.00  1.3422E+002
 544.50  1.3263E+002
 545.00  1.3093E+002
 545.50  1.2607E+002
 546.00  1.1184E+002
 546.50  1.0165E+002
 547.00  1.0215E+002
 547.50  1.1474E+002
 548.00  1.3350E+002
 548.50  1.4338E+002
 549.00  1.5630E+002
 549.50  1.7266E+002
 550.00  1.8382E+002
 550.50  1.9783E+002
 551.00  2.0659E+002
 551.50  2.1887E+002
 552.00  2.3294E+002
 552.50  2.3949E+002
 553.00  2.3482E+002
 553.50  2.2287E+002
 554.00  2.1415E+002
 554.50  2.1677E+002
 555.00  2.3986E+002
 555.50  2.6370E+002
 556.00  2.7774E+002
 556.50  2.8619E+002
 557.00  2.8883E+002
 557.50  2.9072E+002
 558.00  3.0974E+002
 558.50  3.4084E+002
 559.00  3.6889E+002
 559.50  3.8810E+002
 560.00  3.9907E+002
 560.50  4.0419E+002
 561.00  4.0763E+002
 561.50  4.1403E+002
 562.00  4.1447E+002
 562.50  4.2639E+002
 563.00  4.5325E+002
 563.50  4.9276E+002
 564.00  5.3084E+002
 564.50  5.5811E+002
 565.00  5.7785E+002
 565.50  6.1164E+002
 566.00  6.6301E+002
 566.50  7.2455E+002
 567.00  7.7421E+002
 567.50  8.2313E+002
 568.00  8.6844E+002
 568.50  9.2399E+002
 569.00  1.0031E+003
 569.50  1.0641E+003
 570.00  1.1221E+003
 570.50  1.1807E+003
 571.00  1.2506E+003
 571.50  1.3399E+003
 572.00  1.4370E+003
 572.50  1.5412E+003
 573.00  1.6517E+003
 573.50  1.7763E+003
 574.00  1.9189E+003
 574.50  2.0647E+003
 575.00  2.2110E+003
 575.50  2.3606E+003
 576.00  2.5052E+003
 576.50  2.6634E+003
 577.00  2.8471E+003
 577.50  3.0604E+003
 578.00  3.2968E+003
 578.50  3.5302E+003
 579.00  3.7770E+003
 579.50  4.0368E+003
 580.00  4.3121E+003
 580.50  4.6080E+003
 581.00  4.9176E+003
 581.50  5.2736E+003
 582.00  5.6561E+003
 582.50  6.0980E+003
 583.00  6.5669E+003
 583.50  7.0199E+003
 584.00  7.4874E+003
 584.50  7.9420E+003
 585.00  8.3905E+003
 585.50  8.8651E+003
 586.00  9.4153E+003
 586.50  1.0001E+004
 587.00  1.0635E+004
 587.50  1.1265E+004
 588.00  1.1782E+004
 588.50  1.2193E+004
 589.00  1.2426E+004
 589.50  1.2490E+004
 590.00  1.2432E+004
 590.50  1.2260E+004
 591.00  1.1994E+004
 591.50  1.1609E+004
 592.00  1.1095E+004
 592.50  1.0460E+004
 593.00  9.7260E+003
 593.50  8.9126E+003
 594.00  8.0945E+003
 594.50  7.3367E+003
 595.00  6.6861E+003
 595.50  6.1571E+003
 596.00  5.7432E+003
 596.50  5.4051E+003
 597.00  5.1188E+003
 597.50  4.8590E+003
 598.00  4.6042E+003
 598.50  4.3642E+003
 599.00  4.1319E+003
 599.50  3.8982E+003
 600.00  3.6717E+003
 600.50  3.4534E+003
 601.00  3.2288E+003
 601.50  3.0007E+003
 602.00  2.7765E+003
 602.50  2.5685E+003
 603.00  2.3748E+003
 603.50  2.1967E+003
 604.00  2.0222E+003
 604.50  1.8352E+003
 605.00  1.6523E+003
 605.50  1.4831E+003
 606.00  1.3244E+003
 606.50  1.1959E+003
 607.00  1.0845E+003
 607.50  9.7567E+002
 608.00  8.7460E+002
 608.50  7.8127E+002
 609.00  7.0258E+002
 609.50  6.4823E+002
 610.00  5.9896E+002
 610.50  5.3849E+002
 611.00  4.9135E+002
 611.50  4.4075E+002
 612.00  3.9865E+002
 612.50  3.8378E+002
 613.00  3.7968E+002
 613.50  3.7841E+002
 614.00  3.6709E+002
 614.50  3.5392E+002
 615.00  3.4047E+002
 615.50  3.3231E+002
 616.00  3.1786E+002
 616.50  2.7544E+002
 617.00  2.2611E+002
 617.50  1.8825E+002
 618.00  1.7587E+002
 618.50  1.8088E+002
 619.00  1.8896E+002
 619.50  1.9740E+002
 620.00  2.0417E+002
 620.50  2.0720E+002
 621.00  2.0061E+002
 621.50  1.8641E+002
 622.00  1.5830E+002
 622.50  1.3830E+002
 623.00  1.3334E+002
 623.50  1.3956E+002
 624.00  1.5991E+002
 624.50  1.7423E+002
 625.00  1.6622E+002
 625.50  1.4192E+002
 626.00  1.1869E+002
 626.50  1.0292E+002
 627.00  1.0082E+002
 627.50  1.1631E+002
 628.00  1.2852E+002
 628.50  1.2557E+002
 629.00  1.1421E+002
 629.50  1.1545E+002
 630.00  1.3145E+002
 630.50  1.6271E+002
 631.00  1.9292E+002
 631.50  1.9612E+002
 632.00  1.8426E+002
 632.50  1.5440E+002
 633.00  1.3690E+002
 633.50  1.4243E+002
 634.00  1.2921E+002
 634.50  1.1704E+002
 635.00  1.0564E+002
 635.50  9.6996E+001
 636.00  1.2037E+002
 636.50  1.4418E+002
 637.00  1.4815E+002
 637.50  1.3169E+002
 638.00  1.1693E+002
 638.50  1.0616E+002
 639.00  1.1044E+002
 639.50  1.1778E+002
 640.00  1.1380E+002
 640.50  1.2017E+002
 641.00  1.2738E+002
 641.50  1.3786E+002
 642.00  1.4182E+002
 642.50  1.3260E+002
 643.00  1.1930E+002
 643.50  1.1434E+002
 644.00  1.1492E+002
 644.50  1.3070E+002
 645.00  1.4970E+002
 645.50  1.5542E+002
 646.00  1.5457E+002
 646.50  1.3792E+002
 647.00  1.2596E+002
 647.50  1.2281E+002
 648.00  1.2605E+002
 648.50  1.3473E+002
 649.00  1.3755E+002
 649.50  1.2958E+002
 650.00  1.1797E+002
 650.50  1.0895E+002
 651.00  1.0170E+002
 651.50  1.0746E+002
 652.00  1.0652E+002
 652.50  9.4155E+001
 653.00  8.6469E+001
 653.50  8.4328E+001
 654.00  9.1928E+001
 654.50  1.1123E+002
 655.00  1.2561E+002
 655.50  1.3232E+002
 656.00  1.4352E+002
 656.50  1.5362E+002
 657.00  1.5816E+002
 657.50  1.5878E+002
 658.00  1.5724E+002
 658.50  1.5135E+002
 659.00  1.3013E+002
 659.50  1.0682E+002
 660.00  9.5410E+001
 660.50  1.0392E+002
 661.00  1.4102E+002
 661.50  1.7332E+002
 662.00  1.7592E+002
 662.50  1.6441E+002
 663.00  1.4164E+002
 663.50  1.3298E+002
 664.00  1.3485E+002
 664.50  1.2106E+002
 665.00  1.1416E+002
 665.50  1.0660E+002
 666.00  9.9488E+001
 666.50  1.0743E+002
 667.00  1.1284E+002
 667.50  1.1558E+002
 668.00  1.2421E+002
 668.50  1.2749E+002
 669.00  1.2809E+002
 669.50  1.2728E+002
 670.00  1.3495E+002
 670.50  1.5323E+002
 671.00  1.6473E+002
 671.50  1.6781E+002
 672.00  1.4169E+002
 672.50  1.0196E+002
 673.00  7.9048E+001
 673.50  6.5543E+001
 674.00  6.6953E+001
 674.50  8.5449E+001
 675.00  1.0190E+002
 675.50  1.0789E+002
 676.00  1.1637E+002
 676.50  1.2362E+002
 677.00  1.2032E+002
 677.50  1.2664E+002
 678.00  1.2589E+002
 678.50  1.1408E+002
 679.00  9.9021E+001
 679.50  7.7201E+001
 680.00  7.5446E+001
 680.50  9.3855E+001
 681.00  1.0992E+002
 681.50  1.2364E+002
 682.00  1.2663E+002
 682.50  1.1089E+002
 683.00  1.0124E+002
 683.50  9.2054E+001
 684.00  9.3483E+001
 684.50  1.1146E+002
 685.00  1.3137E+002
 685.50  1.5110E+002
 686.00  1.6596E+002
 686.50  1.5997E+002
 687.00  1.3507E+002
 687.50  1.1561E+002
 688.00  9.6950E+001
 688.50  8.3870E+001
 689.00  8.7945E+001
 689.50  9.2675E+001
 690.00  9.1762E+001
 690.50  9.9714E+001
 691.00  1.0995E+002
 691.50  1.1213E+002
 692.00  1.1199E+002
 692.50  1.0355E+002
 693.00  1.0162E+002
 693.50  1.1208E+002
 694.00  1.2346E+002
 694.50  1.3129E+002
 695.00  1.2185E+002
 695.50  1.0170E+002
 696.00  8.1970E+001
 696.50  7.2768E+001
 697.00  8.1132E+001
 697.50  9.0863E+001
 698.00  1.0655E+002
 698.50  1.2278E+002
 699.00  1.2537E+002
 699.50  1.3053E+002
 700.00  1.2082E+002
 700.50  1.0283E+002
 701.00  9.2764E+001
 701.50  8.4424E+001
 702.00  9.4043E+001
 702.50  9.9779E+001
 703.00  9.2647E+001
 703.50  9.0869E+001
 704.00  9.6244E+001
 704.50  1.0600E+002
 705.00  1.1275E+002
 705.50  1.1380E+002
 706.00  1.0322E+002
 706.50  8.4222E+001
 707.00  7.8285E+001
 707.50  7.4211E+001
 708.00  7.3700E+001
 708.50  7.9884E+001
 709.00  8.4865E+001
 709.50  9.8055E+001
 710.00  1.0218E+002
 710.50  1.0072E+002
 711.00  1.0922E+002
 711.50  1.1081E+002
 712.00  1.0925E+002
 712.50  1.1698E+002
 713.00  1.2158E+002
 713.50  1.1631E+002
 714.00  1.1475E+002
 714.50  1.0655E+002
 715.00  9.6841E+001
 715.50  9.0686E+001
 716.00  1.0044E+002
 716.50  1.2193E+002
 717.00  1.3310E+002
 717.50  1.3634E+002
 718.00  1.2623E+002
 718.50  1.1201E+002
 719.00  1.0101E+002
 719.50  1.0080E+002
 720.00  1.1455E+002
 720.50  1.2828E+002
 721.00  1.4108E+002
 721.50  1.3811E+002
 722.00  1.2130E+002
 722.50  9.7407E+001
 723.00  7.3747E+001
 723.50  6.9479E+001
 724.00  7.8454E+001
 724.50  8.4644E+001
 725.00  8.5845E+001
 725.50  8.3896E+001
 726.00  7.2509E+001
 726.50  4.6614E+001
 727.00  4.0796E+001
 727.50  5.5581E+001
 728.00  7.2661E+001
 728.50  9.5846E+001
 729.00  1.0621E+002
 729.50  9.5207E+001
 730.00  8.1817E+001
 730.50  7.5156E+001
 731.00  8.1332E+001
 731.50  8.7783E+001
 732.00  9.5223E+001
 732.50  1.0964E+002
 733.00  1.1298E+002
 733.50  1.0234E+002
 734.00  9.5840E+001
 734.50  9.6561E+001
 735.00  1.0534E+002
 735.50  1.2168E+002
 736.00  1.3609E+002
 736.50  1.3437E+002
 737.00  1.2206E+002
 737.50  1.0980E+002
 738.00  1.0627E+002
 738.50  1.0704E+002
 739.00  1.0269E+002
 739.50  1.0547E+002
 740.00  1.1156E+002
 740.50  1.1450E+002
 741.00  1.2315E+002
 741.50  1.3569E+002
 742.00  1.3996E+002
 742.50  1.3591E+002
 743.00  1.2646E+002
 743.50  1.1741E+002
 744.00  1.1070E+002
 744.50  9.7403E+001
 745.00  9.2642E+001
 745.50  9.3413E+001
 746.00  8.9786E+001
 746.50  9.1460E+001
 747.00  9.9063E+001
 747.50  1.0211E+002
 748.00  1.0809E+002
 748.50  1.1273E+002
 749.00  1.0589E+002
 749.50  1.0076E+002
 750.00  1.0254E+002
 750.50  1.2209E+002
 751.00  1.3181E+002
 751.50  1.3620E+002
 752.00  1.4132E+002
 752.50  1.3110E+002
 753.00  1.3056E+002
 753.50  1.3205E+002
 754.00  1.1827E+002
 754.50  1.0173E+002
 755.00  9.8623E+001
 755.50  9.7619E+001
 756.00  8.8676E+001
 756.50  7.9251E+001
 757.00  6.9983E+001
 757.50  6.5061E+001
 758.00  7.6502E+001
 758.50  8.2427E+001
 759.00  8.8995E+001
 759.50  1.0519E+002
 760.00  1.1976E+002
 760.50  1.4189E+002
 761.00  1.5217E+002
 761.50  1.3958E+002
 762.00  1.2636E+002
 762.50  1.1989E+002
 763.00  1.1609E+002
 763.50  1.2221E+002
 764.00  1.2585E+002
 764.50  1.1691E+002
 765.00  1.0344E+002
 765.50  9.4485E+001
 766.00  8.7648E+001
 766.50  8.8444E+001
 767.00  1.0121E+002
 767.50  1.0946E+002
 768.00  1.0489E+002
 768.50  9.7507E+001
 769.00  9.5234E+001
 769.50  9.9722E+001
 770.00  1.1014E+002
 770.50  1.2609E+002
 771.00  1.3481E+002
 771.50  1.2325E+002
 772.00  1.0301E+002
 772.50  8.1208E+001
 773.00  5.8584E+001
 773.50  4.5585E+001
 774.00  4.5232E+001
 774.50  5.1542E+001
 775.00  6.4835E+001
 775.50  7.8066E+001
 776.00  8.3754E+001
 776.50  9.0174E+001
 777.00  8.7456E+001
 777.50  9.0866E+001
 778.00  9.8259E+001
 778.50  9.3352E+001
 779.00  9.2979E+001
 779.50  1.0193E+002
 780.00  1.2019E+002
 780.50  1.3505E+002
 781.00  1.3807E+002
 781.50  1.2948E+002
 782.00  1.1251E+002
 782.50  1.0358E+002
 783.00  1.1292E+002
 783.50  1.1293E+002
 784.00  1.0597E+002
 784.50  1.0464E+002
 785.00  9.9887E+001
 785.50  9.7744E+001
 786.00  1.1142E+002
 786.50  1.1890E+002
 787.00  1.1692E+002
 787.50  1.1481E+002
 788.00  1.0564E+002
 788.50  9.2842E+001
 789.00  9.2621E+001
 789.50  9.8831E+001
 790.00  1.0833E+002
 790.50  1.1307E+002
 791.00  1.1220E+002
 791.50  1.0881E+002
 792.00  1.0828E+002
 792.50  1.0904E+002
 793.00  1.1730E+002
 793.50  1.1871E+002
 794.00  1.0324E+002
 794.50  9.1464E+001
 795.00  8.5385E+001
 795.50  8.6212E+001
 796.00  1.0038E+002
 796.50  1.1537E+002
 797.00  1.2951E+002
 797.50  1.4089E+002
 798.00  1.4385E+002
 798.50  1.4296E+002
 799.00  1.4022E+002
 799.50  1.2777E+002
 800.00  1.2319E+002
 800.50  1.2200E+002
 801.00  1.0908E+002
 801.50  1.0665E+002
 802.00  1.1303E+002
 802.50  1.0979E+002
 803.00  1.1211E+002
 803.50  1.0695E+002
 804.00  9.2058E+001
 804.50  7.5643E+001
 805.00  6.4919E+001
 805.50  7.0079E+001
 806.00  6.8938E+001
 806.50  7.1958E+001
 807.00  8.2979E+001
 807.50  9.3455E+001
 808.00  1.0996E+002
 808.50  1.2179E+002
 809.00  1.2931E+002
 809.50  1.2658E+002
 810.00  1.1326E+002
 810.50  1.1246E+002
 811.00  1.0650E+002
 811.50  1.0452E+002
 812.00  1.0408E+002
 812.50  1.0156E+002
 813.00  9.8073E+001
 813.50  1.0064E+002
 814.00  1.1016E+002
 814.50  1.1701E+002
 815.00  1.2264E+002
 815.50  1.2629E+002
 816.00  1.1677E+002
 816.50  1.0597E+002
 817.00  9.5524E+001
 817.50  9.0051E+001
 818.00  9.3979E+001
 818.50  1.0119E+002
 819.00  1.1419E+002
 819.50  1.2135E+002
 820.00  1.1806E+002
 820.50  1.1605E+002
 821.00  1.1752E+002
 821.50  1.2686E+002
 822.00  1.3741E+002
 822.50  1.4200E+002
 823.00  1.4227E+002
 823.50  1.3165E+002
 824.00  1.1977E+002
 824.50  1.1746E+002
 825.00  1.1992E+002
 825.50  1.1031E+002
 826.00  9.6610E+001
 826.50  8.3556E+001
 827.00  6.7348E+001
 827.50  6.3253E+001
 828.00  7.0007E+001
 828.50  7.6465E+001
 829.00  8.4021E+001
 829.50  9.4909E+001
 830.00  9.8726E+001
 830.50  9.2500E+001
 831.00  8.5621E+001
 831.50  8.5296E+001
 832.00  9.0190E+001
 832.50  1.0026E+002
 833.00  1.1482E+002
 833.50  1.2317E+002
 834.00  1.2081E+002
 834.50  1.1601E+002
 835.00  1.0754E+002
 835.50  9.3926E+001
 836.00  7.6025E+001
 836.50  6.8467E+001
 837.00  6.4415E+001
 837.50  6.4528E+001
 838.00  7.8414E+001
 838.50  9.4298E+001
 839.00  1.1359E+002
 839.50  1.2802E+002
 840.00  1.3348E+002
 840.50  1.4558E+002
 841.00  1.4663E+002
 841.50  1.3701E+002
 842.00  1.2208E+002
 842.50  1.0905E+002
 843.00  1.0473E+002
 843.50  1.0315E+002
 844.00  1.1768E+002
 844.50  1.2348E+002
 845.00  1.1448E+002
 845.50  1.1782E+002
 846.00  1.2131E+002
 846.50  1.2682E+002
 847.00  1.3817E+002
 847.50  1.4570E+002
 848.00  1.5565E+002
 848.50  1.6036E+002
 849.00  1.4548E+002
 849.50  1.3503E+002
 850.00  1.2935E+002
 850.50  1.1991E+002
 851.00  1.1673E+002
 851.50  1.2444E+002
 852.00  1.2366E+002
 852.50  1.2069E+002
 853.00  1.1624E+002
 853.50  1.1431E+002
 854.00  1.1873E+002
 854.50  1.2181E+002
 855.00  1.2015E+002
 855.50  1.2741E+002
 856.00  1.3166E+002
 856.50  1.3421E+002
 857.00  1.4357E+002
 857.50  1.5171E+002
 858.00  1.5403E+002
 858.50  1.4999E+002
 859.00  1.4034E+002
 859.50  1.3330E+002
 860.00  1.2523E+002
 860.50  1.1183E+002
 861.00  1.0454E+002
 861.50  1.0300E+002
 862.00  1.0482E+002
 862.50  1.1181E+002
 863.00  1.1811E+002
 863.50  1.1944E+002
 864.00  1.0649E+002
 864.50  9.3284E+001
 865.00  9.6423E+001
 865.50  1.0192E+002
 866.00  1.1537E+002
 866.50  1.3358E+002
 867.00  1.3780E+002
 867.50  1.3072E+002
 868.00  1.2692E+002
 868.50  1.2951E+002
 869.00  1.3136E+002
 869.50  1.3335E+002
 870.00  1.2553E+002
 870.50  1.1187E+002
 871.00  1.0254E+002
 871.50  1.0203E+002
 872.00  1.1484E+002
 872.50  1.2516E+002
 873.00  1.2836E+002
 873.50  1.3407E+002
 874.00  1.3391E+002
 874.50  1.2254E+002
 875.00  1.1702E+002
 875.50  1.1297E+002
 876.00  1.0811E+002
 876.50  1.1999E+002
 877.00  1.5023E+002
 877.50  1.7304E+002
 878.00  1.9331E+002
 878.50  1.9540E+002
 879.00  1.6774E+002
 879.50  1.3383E+002
 880.00  1.0943E+002
 880.50  9.7106E+001
 881.00  1.0108E+002
 881.50  1.1463E+002
 882.00  1.2086E+002
 882.50  1.2579E+002
 883.00  1.2898E+002
 883.50  1.2624E+002
 884.00  1.2574E+002
 884.50  1.2179E+002
 885.00  1.2082E+002
 885.50  1.3380E+002
 886.00  1.3619E+002
 886.50  1.3110E+002
 887.00  1.2716E+002
 887.50  1.2046E+002
 888.00  1.1738E+002
 888.50  1.2401E+002
 889.00  1.3027E+002
 889.50  1.2489E+002
 890.00  1.0936E+002
 890.50  9.1738E+001
 891.00  6.3104E+001
 891.50  4.3141E+001
 892.00  4.7167E+001
 892.50  5.5952E+001
 893.00  7.4622E+001
 893.50  9.3300E+001
 894.00  9.8001E+001
 894.50  1.0714E+002
 895.00  1.1153E+002
 895.50  1.1340E+002
 896.00  1.1693E+002
 896.50  1.1717E+002
 897.00  1.1862E+002
 897.50  1.1108E+002
 898.00  1.0572E+002
 898.50  9.9226E+001
 899.00  9.7865E+001
 899.50  1.0875E+002
 900.00  1.2232E+002
 900.50  1.2861E+002
 901.00  1.2428E+002
 901.50  1.1254E+002
 902.00  1.1420E+002
 902.50  1.2277E+002
 903.00  1.3261E+002
 903.50  1.4443E+002
 904.00  1.4942E+002
 904.50  1.5114E+002
 905.00  1.5316E+002
 905.50  1.5161E+002
 906.00  1.4513E+002
 906.50  1.3770E+002
 907.00  1.3130E+002
 907.50  1.2042E+002
 908.00  1.1157E+002
 908.50  1.1192E+002
 909.00  1.1255E+002
 909.50  1.2578E+002
 910.00  1.5233E+002
 910.50  1.7269E+002
 911.00  1.7486E+002
 911.50  1.6548E+002
 912.00  1.4683E+002
 912.50  1.2621E+002
 913.00  1.2051E+002
 913.50  1.2317E+002
 914.00  1.2384E+002
 914.50  1.3191E+002
 915.00  1.4288E+002
 915.50  1.3905E+002
 916.00  1.2977E+002
 916.50  1.2230E+002
 917.00  1.1238E+002
 917.50  1.0759E+002
 918.00  1.1447E+002
 918.50  1.2030E+002
 919.00  1.1574E+002
 919.50  1.1188E+002
 920.00  1.0980E+002
 920.50  1.0068E+002
 921.00  9.8859E+001
 921.50  1.0546E+002
 922.00  9.6338E+001
 922.50  8.4406E+001
 923.00  7.1307E+001
 923.50  6.0304E+001
 924.00  6.1508E+001
 924.50  7.9167E+001
 925.00  1.0542E+002
 925.50  1.1342E+002
 926.00  9.5933E+001
 926.50  8.9654E+001
 927.00  9.1169E+001
 927.50  9.1985E+001
 928.00  1.0233E+002
 928.50  1.0356E+002
 929.00  8.5887E+001
 929.50  7.8844E+001
 930.00  7.8590E+001
 930.50  8.1570E+001
 931.00  9.5611E+001
 931.50  1.0400E+002
 932.00  1.0990E+002
 932.50  1.2614E+002
 933.00  1.2482E+002
 933.50  1.1026E+002
 934.00  1.1132E+002
 934.50  1.1318E+002
 935.00  1.1585E+002
 935.50  1.3761E+002
 936.00  1.5558E+002
 936.50  1.5834E+002
 937.00  1.6214E+002
 937.50  1.5883E+002
 938.00  1.4983E+002
 938.50  1.4019E+002
 939.00  1.3080E+002
 939.50  1.2266E+002
 940.00  1.2100E+002
 940.50  1.3181E+002
 941.00  1.5179E+002
 941.50  1.6850E+002
 942.00  1.7384E+002
 942.50  1.7282E+002
 943.00  1.6404E+002
 943.50  1.4835E+002
 944.00  1.4034E+002
 944.50  1.3818E+002
 945.00  1.3077E+002
 945.50  1.2181E+002
 946.00  1.1730E+002
 946.50  1.1222E+002
 947.00  1.0851E+002
 947.50  1.1124E+002
 948.00  1.1221E+002
 948.50  1.1149E+002
 949.00  1.1210E+002
 949.50  1.1998E+002
 950.00  1.3480E+002
 950.50  1.4562E+002
 951.00  1.5402E+002
 951.50  1.5717E+002
 952.00  1.5192E+002
 952.50  1.4807E+002
 953.00  1.5534E+002
 953.50  1.5684E+002
 954.00  1.5309E+002
 954.50  1.4792E+002
 955.00  1.3127E+002
 955.50  1.1455E+002
 956.00  1.2084E+002
 956.50  1.3436E+002
 957.00  1.4086E+002
 957.50  1.4659E+002
 958.00  1.3760E+002
 958.50  1.1728E+002
 959.00  1.0804E+002
 959.50  1.1062E+002
 960.00  1.1680E+002
 960.50  1.2162E+002
 961.00  1.2878E+002
 961.50  1.4305E+002
 962.00  1.4578E+002
 962.50  1.4055E+002
 963.00  1.3182E+002
 963.50  1.0380E+002
 964.00  7.5538E+001
 964.50  7.2298E+001
 965.00  8.0451E+001
 965.50  9.0495E+001
 966.00  1.1727E+002
 966.50  1.3205E+002
 967.00  1.3815E+002
 967.50  1.4681E+002
 968.00  1.5078E+002
 968.50  1.4906E+002
 969.00  1.3822E+002
 969.50  1.1809E+002
 970.00  9.7200E+001
 970.50  8.2530E+001
 971.00  7.6325E+001
 971.50  8.2600E+001
 972.00  9.5149E+001
 972.50  1.0449E+002
 973.00  1.1149E+002
 973.50  1.1601E+002
 974.00  1.1016E+002
 974.50  1.0154E+002
 975.00  1.0026E+002
 975.50  1.0828E+002
 976.00  1.0746E+002
 976.50  1.0690E+002
 977.00  1.1474E+002
 977.50  1.1276E+002
 978.00  1.1871E+002
 978.50  1.4303E+002
 979.00  1.5582E+002
 979.50  1.5058E+002
 980.00  1.3707E+002
 980.50  1.2023E+002
 981.00  1.1070E+002
 981.50  1.1770E+002
 982.00  1.3512E+002
 982.50  1.4607E+002
 983.00  1.5028E+002
 983.50  1.4097E+002
 984.00  1.3341E+002
 984.50  1.3879E+002
 985.00  1.5059E+002
 985.50  1.6470E+002
 986.00  1.6977E+002
 986.50  1.6341E+002
 987.00  1.5197E+002
 987.50  1.3254E+002
 988.00  1.1181E+002
 988.50  1.0163E+002
 989.00  9.9504E+001
 989.50  1.1049E+002
 990.00  1.3580E+002
 990.50  1.4954E+002
 991.00  1.3709E+002
 991.50  1.1787E+002
 992.00  9.5098E+001
 992.50  8.2503E+001
 993.00  9.2806E+001
 993.50  1.1524E+002
 994.00  1.3488E+002
 994.50  1.3592E+002
 995.00  1.2565E+002
 995.50  1.1704E+002
 996.00  1.0196E+002
 996.50  8.3178E+001
 997.00  6.9403E+001
 997.50  6.2923E+001
 998.00  6.8992E+001
 998.50  7.8296E+001
 999.00  9.4602E+001
 999.50  1.1512E+002
1000.00  1.1804E+002
1000.50  1.0941E+002
1001.00  1.0080E+002
1001.50  8.8120E+001
1002.00  7.5936E+001
1002.50  7.2518E+001
1003.00  8.3155E+001
1003.50  1.0225E+002
1004.00  1.2223E+002
1004.50  1.3390E+002
1005.00  1.3828E+002
1005.50  1.3979E+002
1006.00  1.3813E+002
1006.50  1.3303E+002
1007.00  1.3136E+002
1007.50  1.2550E+002
1008.00  1.1033E+002
1008.50  9.6153E+001
1009.00  9.4139E+001
1009.50  9.3856E+001
1010.00  9.4382E+001
1010.50  1.0295E+002
1011.00  1.1296E+002
1011.50  1.1386E+002
1012.00  1.1640E+002
1012.50  1.2215E+002
1013.00  1.2272E+002
1013.50  1.1066E+002
1014.00  9.4231E+001
1014.50  8.8304E+001
1015.00  9.4185E+001
1015.50  9.8618E+001
1016.00  1.0944E+002
1016.50  1.1817E+002
1017.00  1.1065E+002
1017.50  9.4134E+001
1018.00  8.1006E+001
1018.50  7.0317E+001
1019.00  6.1756E+001
1019.50  6.2947E+001
1020.00  8.0075E+001
1020.50  9.4934E+001
1021.00  1.0239E+002
1021.50  1.1462E+002
1022.00  1.3543E+002
1022.50  1.5399E+002
1023.00  1.7026E+002
1023.50  1.7689E+002
1024.00  1.6057E+002
1024.50  1.4130E+002
1025.00  1.3162E+002
1025.50  1.2684E+002
1026.00  1.2143E+002
1026.50  1.1193E+002
1027.00  9.8418E+001
1027.50  8.4597E+001
1028.00  8.0552E+001
1028.50  8.1771E+001
1029.00  8.3899E+001
1029.50  1.0497E+002
1030.00  1.3489E+002
1030.50  1.5429E+002
1031.00  1.6918E+002
1031.50  1.6914E+002
1032.00  1.4678E+002
1032.50  1.2563E+002
1033.00  1.1626E+002
1033.50  1.1396E+002
1034.00  1.2177E+002
1034.50  1.2165E+002
1035.00  1.1253E+002
1035.50  1.0971E+002
1036.00  1.1221E+002
1036.50  1.1633E+002
1037.00  1.1744E+002
1037.50  1.1516E+002
1038.00  1.0357E+002
1038.50  8.1261E+001
1039.00  6.7786E+001
1039.50  6.9872E+001
1040.00  7.8656E+001
1040.50  8.8625E+001
1041.00  1.0192E+002
1041.50  1.1714E+002
1042.00  1.2300E+002
1042.50  1.2350E+002
1043.00  1.2871E+002
1043.50  1.2611E+002
1044.00  1.1336E+002
1044.50  1.0583E+002
1045.00  1.0229E+002
1045.50  9.8488E+001
1046.00  1.0797E+002
1046.50  1.1917E+002
1047.00  1.2812E+002
1047.50  1.3205E+002
1048.00  1.3243E+002
1048.50  1.2790E+002
1049.00  1.1825E+002
1049.50  1.0142E+002
1050.00  9.2276E+001
1050.50  9.5627E+001
1051.00  9.9443E+001
1051.50  1.0545E+002
1052.00  1.1320E+002
1052.50  1.1073E+002
1053.00  1.1070E+002
1053.50  1.1246E+002
1054.00  1.1843E+002
1054.50  1.2860E+002
1055.00  1.3124E+002
1055.50  1.3196E+002
1056.00  1.4488E+002
1056.50  1.4923E+002
1057.00  1.3899E+002
1057.50  1.1980E+002
1058.00  9.7538E+001
1058.50  7.5476E+001
1059.00  6.5596E+001
1059.50  6.6758E+001
1060.00  7.2843E+001
1060.50  7.7670E+001
1061.00  7.5304E+001
1061.50  6.0443E+001
1062.00  4.7511E+001
1062.50  5.1270E+001
1063.00  7.0928E+001
1063.50  9.2224E+001
1064.00  1.1520E+002
1064.50  1.2664E+002
1065.00  1.1718E+002
1065.50  9.8969E+001
1066.00  8.4647E+001
1066.50  7.3372E+001
1067.00  6.9271E+001
1067.50  6.7846E+001
1068.00  7.2300E+001
1068.50  7.8499E+001
1069.00  8.6428E+001
1069.50  9.3412E+001
1070.00  9.8459E+001
1070.50  1.0411E+002
1071.00  1.0970E+002
1071.50  1.1844E+002
1072.00  1.3161E+002
1072.50  1.3261E+002
1073.00  1.2126E+002
1073.50  1.1394E+002
1074.00  9.1185E+001
1074.50  7.5277E+001
1075.00  8.5765E+001
1075.50  1.0376E+002
1076.00  1.1718E+002
1076.50  1.3544E+002
1077.00  1.4855E+002
1077.50  1.4346E+002
1078.00  1.3385E+002
1078.50  1.2578E+002
1079.00  1.0855E+002
1079.50  9.6262E+001
1080.00  9.9146E+001
1080.50  1.0391E+002
1081.00  1.1411E+002
1081.50  1.1878E+002
1082.00  1.1402E+002
1082.50  1.1570E+002
1083.00  1.2327E+002
1083.50  1.1896E+002
1084.00  1.1265E+002
1084.50  1.1311E+002
1085.00  1.0538E+002
1085.50  9.0773E+001
1086.00  9.3619E+001
1086.50  1.0308E+002
1087.00  1.0243E+002
1087.50  1.0491E+002
1088.00  1.0774E+002
1088.50  1.0689E+002
1089.00  1.0471E+002
1089.50  1.0547E+002
1090.00  1.0583E+002
1090.50  1.0012E+002
1091.00  9.6077E+001
1091.50  9.5091E+001
1092.00  9.4253E+001
1092.50  1.0104E+002
1093.00  1.1169E+002
1093.50  1.2076E+002
1094.00  1.2504E+002
1094.50  1.2559E+002
1095.00  1.2933E+002
1095.50  1.3113E+002
1096.00  1.2774E+002
1096.50  1.2561E+002
1097.00  1.1722E+002
1097.50  1.0603E+002
1098.00  1.0278E+002
1098.50  1.0644E+002
1099.00  1.1889E+002
1099.50  1.2918E+002
1100.00  1.2844E+002
1100.50  1.2704E+002
1101.00  1.2064E+002
1101.50  1.0553E+002
1102.00  1.0520E+002
1102.50  1.1297E+002
1103.00  1.1086E+002
1103.50  1.0465E+002
1104.00  9.8138E+001
1104.50  9.0402E+001
1105.00  9.4308E+001
1105.50  1.0516E+002
1106.00  1.1337E+002
1106.50  1.2691E+002
1107.00  1.3607E+002
1107.50  1.3132E+002
1108.00  1.2446E+002
1108.50  1.2456E+002
1109.00  1.1770E+002
1109.50  1.0799E+002
1110.00  1.1015E+002
1110.50  1.1565E+002
1111.00  1.1698E+002
1111.50  1.1833E+002
1112.00  1.1172E+002
1112.50  1.0055E+002
1113.00  9.9256E+001
1113.50  1.0048E+002
1114.00  1.0171E+002
1114.50  1.0989E+002
1115.00  1.1413E+002
1115.50  1.0736E+002
1116.00  1.0349E+002
1116.50  1.0058E+002
1117.00  9.5020E+001
1117.50  9.5439E+001
1118.00  9.8221E+001
1118.50  1.0082E+002
1119.00  1.0749E+002
1119.50  1.1204E+002
1120.00  1.1239E+002
1120.50  1.1653E+002
1121.00  1.1312E+002
1121.50  1.0078E+002
1122.00  9.0705E+001
1122.50  8.5670E+001
1123.00  8.7942E+001
1123.50  1.0310E+002
1124.00  1.2099E+002
1124.50  1.3583E+002
1125.00  1.4567E+002
1125.50  1.4569E+002
1126.00  1.4432E+002
1126.50  1.5145E+002
1127.00  1.5921E+002
1127.50  1.6136E+002
1128.00  1.5928E+002
1128.50  1.4887E+002
1129.00  1.3183E+002
1129.50  1.1632E+002
1130.00  1.0863E+002
1130.50  1.0820E+002
1131.00  1.1335E+002
1131.50  1.1691E+002
1132.00  1.1082E+002
1132.50  1.0002E+002
1133.00  9.0619E+001
1133.50  8.1301E+001
1134.00  8.5993E+001
1134.50  9.6445E+001
1135.00  9.6564E+001
1135.50  9.8734E+001
1136.00  1.0375E+002
1136.50  1.0064E+002
1137.00  9.9876E+001
1137.50  1.0533E+002
1138.00  1.1096E+002
1138.50  1.1230E+002
1139.00  1.1419E+002
1139.50  1.2114E+002
1140.00  1.2183E+002
1140.50  1.1156E+002
1141.00  1.0185E+002
1141.50  9.1761E+001
1142.00  6.9689E+001
1142.50  5.1546E+001
1143.00  4.7885E+001
1143.50  5.0461E+001
1144.00  6.0563E+001
1144.50  8.6707E+001
1145.00  1.1236E+002
1145.50  1.2857E+002
1146.00  1.3957E+002
1146.50  1.3728E+002
1147.00  1.2696E+002
1147.50  1.1740E+002
1148.00  9.9101E+001
1148.50  7.7364E+001
1149.00  6.5283E+001
1149.50  5.7174E+001
1150.00  5.8424E+001
1150.50  6.6940E+001
1151.00  7.7447E+001
1151.50  8.5827E+001
1152.00  9.5464E+001
1152.50  1.0066E+002
1153.00  1.0948E+002
1153.50  1.2019E+002
1154.00  1.3009E+002
1154.50  1.3663E+002
1155.00  1.4661E+002
1155.50  1.5053E+002
1156.00  1.4116E+002
1156.50  1.3740E+002
1157.00  1.4005E+002
1157.50  1.3576E+002
1158.00  1.4565E+002
1158.50  1.6146E+002
1159.00  1.5581E+002
1159.50  1.4152E+002
1160.00  1.3181E+002
1160.50  1.2181E+002
1161.00  1.1675E+002
1161.50  1.1823E+002
1162.00  1.2297E+002
1162.50  1.2913E+002
1163.00  1.3294E+002
1163.50  1.2742E+002
1164.00  1.1290E+002
1164.50  9.8434E+001
1165.00  8.6724E+001
1165.50  7.7927E+001
1166.00  7.7079E+001
1166.50  8.4537E+001
1167.00  9.6588E+001
1167.50  1.0964E+002
1168.00  1.2090E+002
1168.50  1.2954E+002
1169.00  1.3632E+002
1169.50  1.4137E+002
1170.00  1.3655E+002
1170.50  1.2694E+002
1171.00  1.2516E+002
1171.50  1.2448E+002
1172.00  1.1940E+002
1172.50  1.2256E+002
1173.00  1.3698E+002
1173.50  1.4986E+002
1174.00  1.5534E+002
1174.50  1.5700E+002
1175.00  1.5225E+002
1175.50  1.3903E+002
1176.00  1.2393E+002
1176.50  1.1879E+002
1177.00  1.1647E+002
1177.50  1.3071E+002
1178.00  1.1949E+002
1178.50  1.1244E+002
